Part protocol
Network name;Part_OP10_MP-002_2020-08-26_15-56-58_0031_OK.csv
Protocol version;2.01.00

Index;Result information;Process values - curve related;Process values - EO related;Evaluation objects settings;Switch signal settings;Device information;Channel-X settings;Channel-Y settings;Cycle control settings;Evaluation settings;Trigger Y settings;Block settings;Measuring curve;Measuring points;Sequence;
Line;10;30;40;70;100;120;150;190;220;240;250;260;270;280;570;



Result information
Date;2020/08/26
Time;15:56:58
Cycle number;31
Total result;OK
Triggered switch signals
Part serial number;0031
Measuring program name;D57-Right
Measuring program number;2
Zero X offset;0,00;mm
Tara Y offset;0,0;kN









Process values - curve related
Block X;116,06;mm;XMIN-X;-0,05;mm
Block Y;4,8;kN;XMIN-Y;0,0;kN
Ref X;-;mm;XMAX-X;116,06;mm
Peak-peak X;116,11;mm;XMAX-Y;4,8;kN
Peak-peak Y;4,8;kN;YMIN-X;-0,05;mm
;;;YMIN-Y;0,0;kN
;;;YMAX-X;116,06;mm
;;;YMAX-Y;4,8;kN

Process values - EO related;Result;Entry;Exit;XMIN-X;XMIN-Y;XMAX-X;XMAX-Y;YMIN-Y;YMIN-X;YMAX-Y;YMAX-X
;;;;mm;kN;mm;kN;kN;mm;kN;mm
EO-01;OK;0,7;0,7;;;;;0,7;115,00;0,7;115,28;;;;;;
EO-02;OK;;116,04;116,02;2,3;116,04;3,2;2,3;116,02;;;;;;;;
EO-03;None;
EO-04;None;
























Evaluation objects settings;Reaction;X reference;Y-Reference;XMin;XMax;YMin;YMax;Entry;Exit;Curve part;Catch zone X;Catch zone Y
EO-01;UNI-BOX;ABSOLUTE;-;115,00;115,50;0,4;2,0;LEFT;RIGHT;ANY;+50%;+50%
EO-02;UNI-BOX;ABSOLUTE;-;115,40;117,10;2,3;3,3;ANY;ABOVE;ANY;+50%;+50%
EO-03;OFF
EO-04;OFF

























Switch signal settings;Channel;Threshold at;;Trigger from;Reference;Latch until
Type S1;OFF
Type S2;OFF

















Device information
Device type;maXYmos BL
Device type number;5867B1011
Device serial number;5182443
Firmware version;2.3.2 (r22473-BL_v2.3.x)
-
-
-
-
-
IP Address;10.0.0.18
Network name;OP10
Profibus address;10
-
-
-
Station name;OP10
Company name;
Comment;











Channel-X settings
Use the settings from global setup;True
Sensor-X type;Â±10V
Unit;mm
Used range from;0,00;mm
Used range to;200,00;mm
Decimal places;XXXX.XX
Scaling by;Teach-In
Point 1;0,00;mm;-0,350;%
Point 2;200,00;mm;10,000;%
Invert signal;FALSE
Filter;20 Hz
Test point;0,00;mm
Tolerance;2,00;mm
Enable sensor test by dig-input;FALSE
Zoom from;100,00;mm
Zoom to;120,00;mm























Channel-Y settings
Use the settings from global setup;True
Sensor-Y type;Strain Gage
Unit;kN
Used range from;0,0;kN
Used range to;20,0;kN
Decimal places;XXXXX.X
Scaling by;Teach-In
Point 1;0,0;kN;-0,01562;%
Point 2;20,0;kN;2,00000;%
Invert signal;FALSE
Filter;1 Hz
Piezo reset;-
Test point;0,0;kN
Tolerance;0,1;kN
Enable sensor test by dig-input;FALSE
Zoom from;0,0;kN
Zoom to;5,0;kN












Cycle control settings
Use the settings from global setup;True
Measuring function;Y (X)
Delta-X;Automatic
START condition;Dig-Input
STOP condition;Dig-Input
Cycle time out;20,00;s
Turning point RIGHT;YMAX
Turning point LEFT;NONE
Cut curve at;NONE










Evaluation settings
Capture only first NOK-EO for statistics;False
Hysteresis-X;0,0;%
Hysteresis-Y;100,0;%






Trigger Y settings
Threshold;1,8;kN
Value X at TRIGGER Y;0,00;mm
Approach from;BELOW






Block settings
Value X at block;XMAX
Block at;0,00;mm







Measuring curve
Number of measuring points;285
Ref. Graph on;ABSOLUTE
Curve segments;0;284;283;285;


Time;X(ABSOLUTE);Y;X (ABSOLUTE)


s;mm;kN;mm
0,0000;-0,05107;-0,03497;-0,05107
0,1056;0,35189;-0,03491;0,35189
0,1088;0,76487;-0,03490;0,76487
0,1110;1,18622;-0,03490;1,18622
0,1129;1,62597;-0,03489;1,62597
0,1144;2,03545;-0,03488;2,03545
0,1159;2,49102;-0,03488;2,49102
0,1172;2,91994;-0,03487;2,91994
0,1186;3,36819;-0,03486;3,36819
0,1199;3,82702;-0,03485;3,82702
0,1212;4,28981;-0,03485;4,28981
0,1225;4,75156;-0,03484;4,75156
0,1238;5,20853;-0,03482;5,20853
0,1251;5,65770;-0,03482;5,65770
0,1264;6,09687;-0,03480;6,09687
0,1278;6,52520;-0,03478;6,52520
0,1291;6,94307;-0,03478;6,94307
0,1304;7,35243;-0,03475;7,35243
0,1317;7,75493;-0,03473;7,75493
0,1332;8,20911;-0,03469;8,20911
0,1347;8,65875;-0,03469;8,65875
0,1362;9,10548;-0,03466;9,10548
0,1377;9,55104;-0,03461;9,55104
0,1392;9,99719;-0,03458;9,99719
0,1407;10,44508;-0,03453;10,44508
0,1422;10,89519;-0,03453;10,89519
0,1437;11,34750;-0,03448;11,34750
0,1452;11,80157;-0,03442;11,80157
0,1467;12,25691;-0,03436;12,25691
0,1482;12,71283;-0,03430;12,71283
0,1497;13,16853;-0,03430;13,16853
0,1512;13,62340;-0,03423;13,62340
0,1527;14,07688;-0,03416;14,07688
0,1542;14,52803;-0,03408;14,52803
0,1557;14,97604;-0,03399;14,97604
0,1572;15,42033;-0,03399;15,42033
0,1587;15,86019;-0,03391;15,86019
0,1602;16,29505;-0,03381;16,29505
0,1617;16,72467;-0,03372;16,72467
0,1632;17,14893;-0,03361;17,14893
0,1647;17,56761;-0,03361;17,56761
0,1662;17,98093;-0,03350;17,98093
0,1677;18,38902;-0,03338;18,38902
0,1692;18,79175;-0,03326;18,79175
0,1709;19,23894;-0,03314;19,23894
0,1726;19,68009;-0,03300;19,68009
0,1743;20,11552;-0,03287;20,11552
0,1760;20,54572;-0,03287;20,54572
0,1777;20,97104;-0,03273;20,97104
0,1794;21,39181;-0,03258;21,39181
0,1811;21,80839;-0,03242;21,80839
0,1828;22,22078;-0,03226;22,22078
0,1845;22,62887;-0,03210;22,62887
0,1861;23,03288;-0,03192;23,03288
0,1880;23,47705;-0,03174;23,47705
0,1899;23,91645;-0,03156;23,91645
0,1918;24,35130;-0,03136;24,35130
0,1937;24,78185;-0,03117;24,78185
0,1955;25,20833;-0,03097;25,20833
0,1974;25,63073;-0,03076;25,63073
0,1993;26,04941;-0,03054;26,04941
0,2012;26,46483;-0,03032;26,46483
0,2030;26,87722;-0,03010;26,87722
0,2049;27,28693;-0,02986;27,28693
0,2068;27,69444;-0,02962;27,69444
0,2087;28,10008;-0,02937;28,10008
0,2106;28,50397;-0,02912;28,50397
0,2124;28,90624;-0,02887;28,90624
0,2143;29,30723;-0,02860;29,30723
0,2164;29,74709;-0,02833;29,74709
0,2184;30,18602;-0,02805;30,18602
0,2205;30,62448;-0,02776;30,62448
0,2226;31,06271;-0,02748;31,06271
0,2246;31,50071;-0,02718;31,50071
0,2267;31,93848;-0,02688;31,93848
0,2288;32,37601;-0,02626;32,37601
0,2308;32,81366;-0,02594;32,81366
0,2329;33,25143;-0,02562;33,25143
0,2350;33,68978;-0,02528;33,68978
0,2370;34,12871;-0,02494;34,12871
0,2391;34,56799;-0,02460;34,56799
0,2412;35,00762;-0,02426;35,00762
0,2432;35,44725;-0,02389;35,44725
0,2453;35,88688;-0,02353;35,88688
0,2473;36,32674;-0,02316;36,32674
0,2492;36,72679;-0,02279;36,72679
0,2511;37,12743;-0,02241;37,12743
0,2530;37,52841;-0,02203;37,52841
0,2549;37,92987;-0,02164;37,92987
0,2567;38,33167;-0,02125;38,33167
0,2586;38,73370;-0,02084;38,73370
0,2605;39,13620;-0,02043;39,13620
0,2624;39,53881;-0,02003;39,53881
0,2642;39,94189;-0,01961;39,94189
0,2661;40,34521;-0,01918;40,34521
0,2680;40,74875;-0,01876;40,74875
0,2699;41,15230;-0,01832;41,15230
0,2718;41,55561;-0,01788;41,55561
0,2736;41,95846;-0,01743;41,95846
0,2755;42,36096;-0,01699;42,36096
0,2774;42,76287;-0,01654;42,76287
0,2793;43,16421;-0,01607;43,16421
0,2811;43,56484;-0,01561;43,56484
0,2832;44,00447;-0,01467;44,00447
0,2853;44,44294;-0,01419;44,44294
0,2873;44,87989;-0,01371;44,87989
0,2894;45,31533;-0,01322;45,31533
0,2915;45,74914;-0,01273;45,74914
0,2935;46,18143;-0,01224;46,18143
0,2956;46,61198;-0,01174;46,61198
0,2977;47,04090;-0,01123;47,04090
0,2997;47,46796;-0,01072;47,46796
0,3018;47,89293;-0,01021;47,89293
0,3039;48,31579;-0,00918;48,31579
0,3059;48,73668;-0,00866;48,73668
0,3080;49,15548;-0,00813;49,15548
0,3101;49,57252;-0,00759;49,57252
0,3121;49,98771;-0,00707;49,98771
0,3142;50,40103;-0,00653;50,40103
0,3162;50,81249;-0,00598;50,81249
0,3183;51,22209;-0,00544;51,22209
0,3204;51,62983;-0,00489;51,62983
0,3224;52,03570;-0,00434;52,03570
0,3245;52,43995;-0,00323;52,43995
0,3266;52,84256;-0,00268;52,84256
0,3286;53,24355;-0,00211;53,24355
0,3309;53,67922;-0,00155;53,67922
0,3331;54,11326;-0,00098;54,11326
0,3354;54,54579;-0,00042;54,54579
0,3377;54,97692;0,00073;54,97692
0,3399;55,40654;0,00130;55,40654
0,3422;55,83441;0,00188;55,83441
0,3444;56,26066;0,00245;56,26066
0,3467;56,68492;0,00303;56,68492
0,3489;57,10732;0,00420;57,10732
0,3512;57,52810;0,00478;57,52810
0,3534;57,94747;0,00538;57,94747
0,3557;58,36557;0,00596;58,36557
0,3579;58,78273;0,00655;58,78273
0,3602;59,19897;0,00774;59,19897
0,3624;59,61404;0,00833;59,61404
0,3647;60,02829;0,00892;60,02829
0,3669;60,44185;0,00951;60,44185
0,3692;60,85482;0,01011;60,85482
0,3714;61,26721;0,01130;61,26721
0,3737;61,67902;0,01189;61,67902
0,3760;62,09025;0,01249;62,09025
0,3782;62,50078;0,01310;62,50078
0,3805;62,91096;0,01369;62,91096
0,3827;63,32056;0,01488;63,32056
0,3850;63,72981;0,01548;63,72981
0,3872;64,13883;0,01609;64,13883
0,3895;64,54784;0,01668;64,54784
0,3917;64,95686;0,01728;64,95686
0,3940;65,36576;0,01847;65,36576
0,3962;65,77431;0,01908;65,77431
0,3985;66,18251;0,01967;66,18251
0,4007;66,59037;0,02027;66,59037
0,4030;66,99775;0,02086;66,99775
0,4052;67,40479;0,02206;67,40479
0,4075;67,81136;0,02265;67,81136
0,4097;68,21747;0,02324;68,21747
0,4120;68,62334;0,02383;68,62334
0,4142;69,02852;0,02442;69,02852
0,4165;69,43311;0,02560;69,43311
0,4188;69,83701;0,02619;69,83701
0,4210;70,23997;0,02678;70,23997
0,4233;70,64212;0,02736;70,64212
0,4255;71,04346;0,02794;71,04346
0,4278;71,44398;0,02911;71,44398
0,4302;71,87685;0,02969;71,87685
0,4326;72,30857;0,03027;72,30857
0,4351;72,73912;0,03084;72,73912
0,4375;73,16850;0,03199;73,16850
0,4400;73,59684;0,03256;73,59684
0,4424;74,02413;0,03314;74,02413
0,4449;74,45003;0,03427;74,45003
0,4473;74,87441;0,03483;74,87441
0,4497;75,29716;0,03540;75,29716
0,4522;75,71782;0,03652;75,71782
0,4546;76,13661;0,03707;76,13661
0,4571;76,55343;0,03763;76,55343
0,4595;76,96850;0,03818;76,96850
0,4619;77,38170;0,03927;77,38170
0,4644;77,79305;0,03982;77,79305
0,4668;78,20218;0,04037;78,20218
0,4693;78,60922;0,04144;78,60922
0,4717;79,01416;0,04198;79,01416
0,4741;79,41747;0,04251;79,41747
0,4766;79,81951;0,04357;79,81951
0,4790;80,22026;0,04410;80,22026
0,4816;80,65046;0,04463;80,65046
0,4843;81,07880;0,04566;81,07880
0,4869;81,50504;0,04618;81,50504
0,4895;81,92942;0,04669;81,92942
0,4922;82,35159;0,04771;82,35159
0,4948;82,77190;0,04822;82,77190
0,4974;83,19081;0,04922;83,19081
0,5000;83,60844;0,04972;83,60844
0,5027;84,02514;0,05021;84,02514
0,5053;84,44102;0,05119;84,44102
0,5079;84,85621;0,05167;84,85621
0,5106;85,27116;0,05263;85,27116
0,5132;85,68611;0,05311;85,68611
0,5158;86,10118;0,05359;86,10118
0,5184;86,51614;0,05453;86,51614
0,5211;86,93086;0,05499;86,93086
0,5237;87,34500;0,05592;87,34500
0,5263;87,75902;0,05637;87,75902
0,5290;88,17304;0,05683;88,17304
0,5316;88,58660;0,05773;88,58660
0,5342;88,99992;0,05818;88,99992
0,5368;89,41266;0,05906;89,41266
0,5395;89,82470;0,05950;89,82470
0,5421;90,23593;0,05993;90,23593
0,5447;90,64634;0,06080;90,64634
0,5474;91,05583;0,06122;91,05583
0,5500;91,46461;0,06207;91,46461
0,5526;91,87270;0,06248;91,87270
0,5552;92,27997;0,06290;92,27997
0,5579;92,68631;0,06372;92,68631
0,5605;93,09148;0,06413;93,09148
0,5631;93,49526;0,06493;93,49526
0,5658;93,89753;0,06533;93,89753
0,5684;94,29840;0,06572;94,29840
0,5712;94,72662;0,06651;94,72662
0,5740;95,15356;0,06690;95,15356
0,5768;95,57945;0,06767;95,57945
0,5796;96,00418;0,06804;96,00418
0,5825;96,42787;0,06879;96,42787
0,5853;96,85039;0,06917;96,85039
0,5881;97,27174;0,06991;97,27174
0,5909;97,69240;0,07027;97,69240
0,5937;98,11224;0,07099;98,11224
0,5965;98,53138;0,07135;98,53138
0,5994;98,94936;0,07205;98,94936
0,6022;99,36618;0,07240;99,36618
0,6050;99,78113;0,07309;99,78113
0,6078;100,19434;0,07343;100,19434
0,6106;100,60568;0,07411;100,60568
0,6134;101,01540;0,07444;101,01540
0,6163;101,42383;0,07511;101,42383
0,6191;101,83098;0,07543;101,83098
0,6219;102,23686;0,07608;102,23686
0,6247;102,64134;0,07640;102,64134
0,6275;103,04453;0,07703;103,04453
0,6303;103,44645;0,07735;103,44645
0,6332;103,84767;0,07797;103,84767
0,6360;104,24854;0,07827;104,24854
0,6388;104,64940;0,07888;104,64940
0,6416;105,05027;0,07918;105,05027
0,6444;105,45091;0,07977;105,45091
0,6472;105,85108;0,08007;105,85108
0,6502;106,27744;0,08065;106,27744
0,6532;106,70240;0,08123;106,70240
0,6562;107,12283;0,08151;107,12283
0,6593;107,53417;0,08207;107,53417
0,6624;107,95634;0,08262;107,95634
0,6656;108,35791;0,08290;108,35791
0,6692;108,77391;0,08345;108,77391
0,6731;109,18095;0,08399;109,18095
0,6780;109,58868;0,08479;109,58868
0,6857;109,98920;0,08585;109,98920
0,7447;110,39170;0,09497;110,39170
0,7552;110,79385;0,09731;110,79385
0,7619;111,20007;0,09903;111,20007
0,7676;111,60688;0,10043;111,60688
0,7728;112,01927;0,10141;112,01927
0,7781;112,43108;0,10296;112,43108
0,7845;112,83428;0,10520;112,83428
1,2531;113,23491;0,66136;113,23491
1,2617;113,64835;0,67209;113,64835
1,2664;114,05702;0,67630;114,05702
1,2705;114,46499;0,68046;114,46499
1,2747;114,88087;0,68664;114,88087
1,2792;115,28337;0,69071;115,28337
1,2861;115,68669;0,69877;115,68669
1,4716;115,98839;1,31163;115,98839
1,5354;116,01062;1,93120;116,01062
1,5842;116,02354;2,54870;116,02354
1,6274;116,03588;3,16707;116,03588
1,6687;116,04623;3,79420;116,04623
1,7082;116,05217;4,40345;116,05217
1,7344;116,05881;4,80665;116,05881
1,7354;116,05904;4,80665;116,05904
