Part protocol
Network name;Part_OP10_MP-001_2020-08-26_15-40-58_0027_OK.csv
Protocol version;2.01.00

Index;Result information;Process values - curve related;Process values - EO related;Evaluation objects settings;Switch signal settings;Device information;Channel-X settings;Channel-Y settings;Cycle control settings;Evaluation settings;Trigger Y settings;Block settings;Measuring curve;Measuring points;Sequence;
Line;10;30;40;70;100;120;150;190;220;240;250;260;270;280;600;



Result information
Date;2020/08/26
Time;15:40:58
Cycle number;27
Total result;OK
Triggered switch signals
Part serial number;0027
Measuring program name;D57-Left
Measuring program number;1
Zero X offset;0,00;mm
Tara Y offset;0,0;kN









Process values - curve related
Block X;126,36;mm;XMIN-X;-0,20;mm
Block Y;7,5;kN;XMIN-Y;0,0;kN
Ref X;-;mm;XMAX-X;126,36;mm
Peak-peak X;126,56;mm;XMAX-Y;7,5;kN
Peak-peak Y;7,5;kN;YMIN-X;-0,20;mm
;;;YMIN-Y;0,0;kN
;;;YMAX-X;126,36;mm
;;;YMAX-Y;7,5;kN

Process values - EO related;Result;Entry;Exit;XMIN-X;XMIN-Y;XMAX-X;XMAX-Y;YMIN-Y;YMIN-X;YMAX-Y;YMAX-X
;;;;mm;kN;mm;kN;kN;mm;kN;mm
EO-01;OK;0,7;0,8;;;;;0,7;124,50;0,7;125,53;;;;;;
EO-02;OK;126,31;126,33;126,31;4,5;126,32;5,0;;;;;;;;;;
EO-03;None;
EO-04;None;
























Evaluation objects settings;Reaction;X reference;Y-Reference;XMin;XMax;YMin;YMax;Entry;Exit;Curve part;Catch zone X;Catch zone Y
EO-01;UNI-BOX;ABSOLUTE;-;124,50;125,70;0,5;3,0;LEFT;RIGHT;ANY;+50%;+50%
EO-02;UNI-BOX;ABSOLUTE;-;125,80;127,20;4,5;5,5;BELOW;ABOVE;ANY;+50%;+50%
EO-03;OFF
EO-04;OFF

























Switch signal settings;Channel;Threshold at;;Trigger from;Reference;Latch until
Type S1;OFF
Type S2;OFF

















Device information
Device type;maXYmos BL
Device type number;5867B1011
Device serial number;5182443
Firmware version;2.3.2 (r22473-BL_v2.3.x)
-
-
-
-
-
IP Address;10.0.0.18
Network name;OP10
Profibus address;10
-
-
-
Station name;OP10
Company name;
Comment;











Channel-X settings
Use the settings from global setup;True
Sensor-X type;Â±10V
Unit;mm
Used range from;0,00;mm
Used range to;200,00;mm
Decimal places;XXXX.XX
Scaling by;Teach-In
Point 1;0,00;mm;-0,350;%
Point 2;200,00;mm;10,000;%
Invert signal;FALSE
Filter;20 Hz
Test point;0,00;mm
Tolerance;2,00;mm
Enable sensor test by dig-input;FALSE
Zoom from;110,00;mm
Zoom to;133,11;mm























Channel-Y settings
Use the settings from global setup;True
Sensor-Y type;Strain Gage
Unit;kN
Used range from;0,0;kN
Used range to;20,0;kN
Decimal places;XXXXX.X
Scaling by;Teach-In
Point 1;0,0;kN;-0,01562;%
Point 2;20,0;kN;2,00000;%
Invert signal;FALSE
Filter;1 Hz
Piezo reset;-
Test point;0,0;kN
Tolerance;0,1;kN
Enable sensor test by dig-input;FALSE
Zoom from;0,0;kN
Zoom to;6,0;kN












Cycle control settings
Use the settings from global setup;True
Measuring function;Y (X)
Delta-X;Automatic
START condition;Dig-Input
STOP condition;Dig-Input
Cycle time out;20,00;s
Turning point RIGHT;YMAX
Turning point LEFT;NONE
Cut curve at;NONE










Evaluation settings
Capture only first NOK-EO for statistics;False
Hysteresis-X;0,0;%
Hysteresis-Y;100,0;%






Trigger Y settings
Threshold;1,9;kN
Value X at TRIGGER Y;0,00;mm
Approach from;BELOW






Block settings
Value X at block;XMAX
Block at;0,00;mm







Measuring curve
Number of measuring points;316
Ref. Graph on;ABSOLUTE
Curve segments;0;315;314;316;


Time;X(ABSOLUTE);Y;X (ABSOLUTE)


s;mm;kN;mm
0,0000;-0,20425;-0,03401;-0,20425
0,1000;0,21024;-0,03400;0,21024
0,1040;0,62752;-0,03400;0,62752
0,1068;1,04305;-0,03400;1,04305
0,1090;1,44870;-0,03400;1,44870
0,1111;1,87820;-0,03400;1,87820
0,1130;2,31666;-0,03400;2,31666
0,1147;2,75001;-0,03399;2,75001
0,1162;3,16601;-0,03399;3,16601
0,1177;3,61052;-0,03399;3,61052
0,1190;4,02257;-0,03399;4,02257
0,1203;4,45626;-0,03398;4,45626
0,1216;4,91102;-0,03398;4,91102
0,1227;5,31596;-0,03398;5,31596
0,1239;5,73161;-0,03398;5,73161
0,1250;6,15402;-0,03398;6,15402
0,1261;6,57840;-0,03398;6,57840
0,1272;6,99999;-0,03398;6,99999
0,1284;7,41436;-0,03397;7,41436
0,1295;7,81848;-0,03396;7,81848
0,1308;8,27418;-0,03396;8,27418
0,1321;8,71159;-0,03395;8,71159
0,1334;9,13015;-0,03394;9,13015
0,1349;9,58526;-0,03393;9,58526
0,1364;10,01558;-0,03393;10,01558
0,1379;10,42227;-0,03391;10,42227
0,1396;10,85573;-0,03390;10,85573
0,1413;11,27022;-0,03388;11,27022
0,1430;11,67341;-0,03386;11,67341
0,1449;12,11456;-0,03385;12,11456
0,1468;12,55291;-0,03383;12,55291
0,1486;12,99137;-0,03381;12,99137
0,1505;13,43344;-0,03378;13,43344
0,1522;13,83699;-0,03376;13,83699
0,1539;14,24694;-0,03373;14,24694
0,1556;14,66305;-0,03371;14,66305
0,1573;15,08406;-0,03371;15,08406
0,1590;15,50914;-0,03367;15,50914
0,1607;15,93853;-0,03364;15,93853
0,1623;16,37210;-0,03360;16,37210
0,1640;16,80929;-0,03357;16,80929
0,1657;17,24915;-0,03353;17,24915
0,1674;17,69052;-0,03348;17,69052
0,1691;18,13318;-0,03345;18,13318
0,1708;18,57781;-0,03340;18,57781
0,1725;19,02442;-0,03335;19,02442
0,1742;19,47267;-0,03335;19,47267
0,1759;19,92161;-0,03330;19,92161
0,1776;20,37113;-0,03324;20,37113
0,1791;20,77153;-0,03319;20,77153
0,1806;21,17322;-0,03313;21,17322
0,1821;21,57641;-0,03308;21,57641
0,1836;21,98089;-0,03308;21,98089
0,1851;22,38583;-0,03301;22,38583
0,1866;22,79078;-0,03295;22,79078
0,1881;23,19560;-0,03288;23,19560
0,1896;23,60043;-0,03281;23,60043
0,1911;24,00584;-0,03281;24,00584
0,1926;24,41194;-0,03273;24,41194
0,1941;24,81828;-0,03266;24,81828
0,1956;25,22439;-0,03259;25,22439
0,1971;25,62980;-0,03250;25,62980
0,1986;26,03463;-0,03250;26,03463
0,2001;26,43922;-0,03243;26,43922
0,2016;26,84405;-0,03234;26,84405
0,2031;27,24887;-0,03225;27,24887
0,2046;27,65335;-0,03217;27,65335
0,2061;28,05690;-0,03217;28,05690
0,2076;28,45893;-0,03208;28,45893
0,2091;28,85957;-0,03199;28,85957
0,2108;29,30874;-0,03188;29,30874
0,2125;29,75652;-0,03179;29,75652
0,2142;30,20243;-0,03169;30,20243
0,2159;30,64602;-0,03159;30,64602
0,2175;31,08669;-0,03148;31,08669
0,2192;31,52458;-0,03148;31,52458
0,2209;31,96001;-0,03137;31,96001
0,2226;32,39324;-0,03126;32,39324
0,2243;32,82426;-0,03115;32,82426
0,2260;33,25294;-0,03104;33,25294
0,2277;33,67907;-0,03092;33,67907
0,2294;34,10287;-0,03081;34,10287
0,2311;34,52446;-0,03069;34,52446
0,2328;34,94407;-0,03057;34,94407
0,2344;35,36146;-0,03045;35,36146
0,2361;35,77665;-0,03045;35,77665
0,2378;36,18962;-0,03032;36,18962
0,2395;36,60027;-0,03019;36,60027
0,2412;37,00894;-0,03007;37,00894
0,2429;37,41563;-0,02994;37,41563
0,2446;37,82034;-0,02980;37,82034
0,2463;38,22283;-0,02967;38,22283
0,2480;38,62347;-0,02953;38,62347
0,2498;39,06659;-0,02940;39,06659
0,2517;39,50785;-0,02926;39,50785
0,2536;39,94713;-0,02912;39,94713
0,2555;40,38478;-0,02899;40,38478
0,2573;40,82057;-0,02884;40,82057
0,2592;41,25461;-0,02870;41,25461
0,2611;41,68679;-0,02855;41,68679
0,2630;42,11699;-0,02841;42,11699
0,2649;42,54545;-0,02826;42,54545
0,2667;42,97227;-0,02812;42,97227
0,2686;43,39735;-0,02797;43,39735
0,2705;43,82080;-0,02782;43,82080
0,2724;44,24262;-0,02766;44,24262
0,2742;44,66293;-0,02751;44,66293
0,2761;45,08172;-0,02736;45,08172
0,2780;45,49912;-0,02721;45,49912
0,2799;45,91524;-0,02705;45,91524
0,2818;46,33007;-0,02689;46,33007
0,2836;46,74363;-0,02674;46,74363
0,2855;47,15555;-0,02658;47,15555
0,2874;47,56585;-0,02642;47,56585
0,2893;47,97452;-0,02626;47,97452
0,2911;48,38156;-0,02611;48,38156
0,2930;48,78708;-0,02595;48,78708
0,2949;49,19156;-0,02578;49,19156
0,2968;49,59487;-0,02563;49,59487
0,2986;49,99749;-0,02546;49,99749
0,3005;50,39917;-0,02530;50,39917
0,3024;50,79992;-0,02513;50,79992
0,3045;51,23967;-0,02497;51,23967
0,3065;51,67802;-0,02481;51,67802
0,3086;52,11532;-0,02464;52,11532
0,3107;52,55134;-0,02448;52,55134
0,3127;52,98655;-0,02431;52,98655
0,3148;53,42082;-0,02414;53,42082
0,3169;53,85405;-0,02398;53,85405
0,3189;54,28611;-0,02364;54,28611
0,3210;54,71701;-0,02348;54,71701
0,3231;55,14663;-0,02331;55,14663
0,3251;55,57520;-0,02314;55,57520
0,3272;56,00237;-0,02298;56,00237
0,3292;56,42815;-0,02281;56,42815
0,3313;56,85253;-0,02264;56,85253
0,3334;57,27552;-0,02248;57,27552
0,3354;57,69710;-0,02230;57,69710
0,3375;58,11741;-0,02214;58,11741
0,3396;58,53667;-0,02180;58,53667
0,3416;58,95453;-0,02164;58,95453
0,3437;59,37100;-0,02146;59,37100
0,3458;59,78595;-0,02129;59,78595
0,3478;60,19928;-0,02113;60,19928
0,3499;60,61120;-0,02096;60,61120
0,3520;61,02208;-0,02078;61,02208
0,3540;61,43191;-0,02062;61,43191
0,3561;61,84070;-0,02045;61,84070
0,3582;62,24820;-0,02028;62,24820
0,3602;62,65454;-0,01994;62,65454
0,3623;63,05972;-0,01978;63,05972
0,3644;63,46350;-0,01961;63,46350
0,3664;63,86611;-0,01944;63,86611
0,3685;64,26768;-0,01928;64,26768
0,3706;64,66808;-0,01910;64,66808
0,3728;65,10364;-0,01893;65,10364
0,3751;65,53756;-0,01877;65,53756
0,3773;65,97009;-0,01843;65,97009
0,3796;66,40099;-0,01827;66,40099
0,3818;66,83038;-0,01810;66,83038
0,3841;67,25813;-0,01793;67,25813
0,3863;67,68449;-0,01777;67,68449
0,3886;68,10945;-0,01743;68,10945
0,3908;68,53337;-0,01727;68,53337
0,3931;68,95659;-0,01710;68,95659
0,3953;69,37934;-0,01693;69,37934
0,3976;69,80139;-0,01677;69,80139
0,3998;70,22298;-0,01643;70,22298
0,4021;70,64352;-0,01628;70,64352
0,4043;71,06290;-0,01611;71,06290
0,4066;71,48099;-0,01594;71,48099
0,4089;71,89792;-0,01578;71,89792
0,4111;72,31357;-0,01545;72,31357
0,4134;72,72818;-0,01529;72,72818
0,4156;73,14208;-0,01513;73,14208
0,4179;73,55541;-0,01496;73,55541
0,4201;73,96815;-0,01480;73,96815
0,4224;74,38019;-0,01447;74,38019
0,4246;74,79154;-0,01431;74,79154
0,4269;75,20195;-0,01415;75,20195
0,4291;75,61143;-0,01399;75,61143
0,4314;76,01998;-0,01383;76,01998
0,4336;76,42795;-0,01351;76,42795
0,4359;76,83511;-0,01335;76,83511
0,4381;77,24144;-0,01318;77,24144
0,4404;77,64674;-0,01303;77,64674
0,4426;78,05110;-0,01287;78,05110
0,4449;78,45453;-0,01255;78,45453
0,4472;78,85691;-0,01239;78,85691
0,4494;79,25871;-0,01223;79,25871
0,4517;79,65993;-0,01207;79,65993
0,4539;80,06045;-0,01191;80,06045
0,4564;80,49333;-0,01159;80,49333
0,4588;80,92481;-0,01143;80,92481
0,4612;81,35454;-0,01128;81,35454
0,4637;81,78241;-0,01096;81,78241
0,4661;82,20796;-0,01081;82,20796
0,4686;82,63141;-0,01065;82,63141
0,4710;83,05276;-0,01033;83,05276
0,4734;83,47202;-0,01018;83,47202
0,4759;83,88907;-0,01003;83,88907
0,4783;84,30414;-0,00987;84,30414
0,4808;84,71735;-0,00956;84,71735
0,4832;85,12904;-0,00940;85,12904
0,4856;85,53957;-0,00924;85,53957
0,4881;85,94882;-0,00894;85,94882
0,4905;86,35667;-0,00878;86,35667
0,4930;86,76290;-0,00863;86,76290
0,4954;87,16749;-0,00832;87,16749
0,4978;87,57011;-0,00817;87,57011
0,5003;87,97121;-0,00801;87,97121
0,5029;88,40129;-0,00770;88,40129
0,5055;88,82975;-0,00755;88,82975
0,5082;89,25669;-0,00740;89,25669
0,5108;89,68223;-0,00709;89,68223
0,5134;90,10638;-0,00694;90,10638
0,5161;90,52902;-0,00664;90,52902
0,5187;90,95049;-0,00648;90,95049
0,5213;91,37114;-0,00633;91,37114
0,5239;91,79110;-0,00603;91,79110
0,5266;92,21048;-0,00588;92,21048
0,5292;92,62916;-0,00558;92,62916
0,5318;93,04702;-0,00543;93,04702
0,5345;93,46407;-0,00528;93,46407
0,5371;93,88018;-0,00497;93,88018
0,5397;94,29572;-0,00483;94,29572
0,5423;94,71044;-0,00453;94,71044
0,5450;95,12434;-0,00438;95,12434
0,5476;95,53720;-0,00422;95,53720
0,5502;95,94913;-0,00393;95,94913
0,5528;96,36001;-0,00378;96,36001
0,5555;96,76996;-0,00348;96,76996
0,5581;97,17920;-0,00333;97,17920
0,5607;97,58787;-0,00319;97,58787
0,5634;97,99607;-0,00289;97,99607
0,5660;98,40311;-0,00274;98,40311
0,5686;98,80875;-0,00245;98,80875
0,5712;99,21300;-0,00230;99,21300
0,5739;99,61573;-0,00215;99,61573
0,5765;100,01741;-0,00185;100,01741
0,5791;100,41793;-0,00171;100,41793
0,5819;100,84627;-0,00141;100,84627
0,5848;101,27379;-0,00126;101,27379
0,5876;101,70062;-0,00097;101,70062
0,5904;102,12628;-0,00082;102,12628
0,5932;102,55078;-0,00053;102,55078
0,5960;102,97388;-0,00038;102,97388
0,5988;103,39547;-0,00009;103,39547
0,6017;103,81380;0,00006;103,81380
0,6045;104,22654;0,00036;104,22654
0,6073;104,63171;0,00051;104,63171
0,6103;105,05540;0,00079;105,05540
0,6133;105,47198;0,00094;105,47198
0,6163;105,88262;0,00124;105,88262
0,6193;106,28733;0,00153;106,28733
0,6225;106,71055;0,00167;106,71055
0,6257;107,12690;0,00197;107,12690
0,6289;107,53638;0,00227;107,53638
0,6321;107,93865;0,00241;107,93865
0,6355;108,35651;0,00271;108,35651
0,6388;108,76716;0,00302;108,76716
0,6422;109,17315;0,00331;109,17315
0,6456;109,57716;0,00362;109,57716
0,6490;109,98199;0,00377;109,98199
0,6524;110,38984;0,00408;110,38984
0,6557;110,80200;0,00439;110,80200
0,6591;111,21974;0,00470;111,21974
0,6623;111,62073;0,00486;111,62073
0,6655;112,02940;0,00518;112,02940
0,6687;112,44726;0,00551;112,44726
0,6717;112,84964;0,00566;112,84964
0,6747;113,26099;0,00600;113,26099
0,6777;113,67990;0,00633;113,67990
0,6807;114,10486;0,00651;114,10486
0,6835;114,50573;0,00685;114,50573
0,6863;114,90660;0,00701;114,90660
0,6893;115,33145;0,00737;115,33145
0,6923;115,75210;0,00755;115,75210
0,6953;116,16927;0,00790;116,16927
0,6983;116,58573;0,00827;116,58573
0,7014;117,00488;0,00846;117,00488
0,7044;117,42693;0,00884;117,42693
0,7074;117,83699;0,00902;117,83699
0,7107;118,24124;0,00941;118,24124
0,7154;118,64304;0,01001;118,64304
0,8808;119,04309;0,07279;119,04309
1,2817;119,44466;0,64629;119,44466
1,2867;119,85600;0,65315;119,85600
1,2910;120,26269;0,65767;120,26269
1,2952;120,66484;0,66437;120,66484
1,2997;121,07723;0,66880;121,07723
1,3051;121,48485;0,67539;121,48485
1,3123;121,89410;0,68408;121,89410
1,3203;122,29486;0,69273;122,29486
1,3275;122,70434;0,70137;122,70434
1,3333;123,10753;0,70788;123,10753
1,3389;123,50864;0,71444;123,50864
1,3446;123,90927;0,72105;123,90927
1,3504;124,31654;0,72777;124,31654
1,3562;124,71683;0,73456;124,71683
1,3618;125,11956;0,74147;125,11956
1,3675;125,52753;0,74850;125,52753
1,3748;125,93480;0,75808;125,93480
1,5768;126,22765;1,35838;126,22765
1,6631;126,25838;1,96325;126,25838
1,7289;126,27456;2,56596;126,27456
1,7871;126,28853;3,17944;126,28853
1,8415;126,30122;3,79607;126,30122
1,8941;126,31251;4,40825;126,31251
1,9466;126,32112;5,01807;126,32112
2,0011;126,32927;5,63172;126,32927
2,0574;126,33893;6,23574;126,33893
2,1175;126,34731;6,83790;126,34731
2,1832;126,35488;7,44348;126,35488
2,1869;126,35511;7,47642;126,35511
2,1871;126,35522;7,47642;126,35522
