Part protocol
Network name;Part_OP10_MP-002_2020-08-26_16-29-02_0044_OK.csv
Protocol version;2.01.00

Index;Result information;Process values - curve related;Process values - EO related;Evaluation objects settings;Switch signal settings;Device information;Channel-X settings;Channel-Y settings;Cycle control settings;Evaluation settings;Trigger Y settings;Block settings;Measuring curve;Measuring points;Sequence;
Line;10;30;40;70;100;120;150;190;220;240;250;260;270;280;570;



Result information
Date;2020/08/26
Time;16:29:02
Cycle number;44
Total result;OK
Triggered switch signals
Part serial number;0044
Measuring program name;D57-Right
Measuring program number;2
Zero X offset;0,00;mm
Tara Y offset;0,0;kN









Process values - curve related
Block X;116,09;mm;XMIN-X;0,01;mm
Block Y;4,7;kN;XMIN-Y;0,0;kN
Ref X;-;mm;XMAX-X;116,09;mm
Peak-peak X;116,08;mm;XMAX-Y;4,7;kN
Peak-peak Y;4,7;kN;YMIN-X;0,43;mm
;;;YMIN-Y;0,0;kN
;;;YMAX-X;116,09;mm
;;;YMAX-Y;4,7;kN

Process values - EO related;Result;Entry;Exit;XMIN-X;XMIN-Y;XMAX-X;XMAX-Y;YMIN-Y;YMIN-X;YMAX-Y;YMAX-X
;;;;mm;kN;mm;kN;kN;mm;kN;mm
EO-01;OK;0,7;0,7;;;;;0,7;115,00;0,7;115,35;;;;;;
EO-02;OK;;116,07;116,05;2,3;116,07;3,1;2,3;116,05;;;;;;;;
EO-03;None;
EO-04;None;
























Evaluation objects settings;Reaction;X reference;Y-Reference;XMin;XMax;YMin;YMax;Entry;Exit;Curve part;Catch zone X;Catch zone Y
EO-01;UNI-BOX;ABSOLUTE;-;115,00;115,50;0,4;2,0;LEFT;RIGHT;ANY;+50%;+50%
EO-02;UNI-BOX;ABSOLUTE;-;115,40;117,10;2,3;3,3;ANY;ABOVE;ANY;+50%;+50%
EO-03;OFF
EO-04;OFF

























Switch signal settings;Channel;Threshold at;;Trigger from;Reference;Latch until
Type S1;OFF
Type S2;OFF

















Device information
Device type;maXYmos BL
Device type number;5867B1011
Device serial number;5182443
Firmware version;2.3.2 (r22473-BL_v2.3.x)
-
-
-
-
-
IP Address;10.0.0.18
Network name;OP10
Profibus address;10
-
-
-
Station name;OP10
Company name;
Comment;











Channel-X settings
Use the settings from global setup;True
Sensor-X type;Â±10V
Unit;mm
Used range from;0,00;mm
Used range to;200,00;mm
Decimal places;XXXX.XX
Scaling by;Teach-In
Point 1;0,00;mm;-0,350;%
Point 2;200,00;mm;10,000;%
Invert signal;FALSE
Filter;20 Hz
Test point;0,00;mm
Tolerance;2,00;mm
Enable sensor test by dig-input;FALSE
Zoom from;100,00;mm
Zoom to;120,00;mm























Channel-Y settings
Use the settings from global setup;True
Sensor-Y type;Strain Gage
Unit;kN
Used range from;0,0;kN
Used range to;20,0;kN
Decimal places;XXXXX.X
Scaling by;Teach-In
Point 1;0,0;kN;-0,01562;%
Point 2;20,0;kN;2,00000;%
Invert signal;FALSE
Filter;1 Hz
Piezo reset;-
Test point;0,0;kN
Tolerance;0,1;kN
Enable sensor test by dig-input;FALSE
Zoom from;0,0;kN
Zoom to;5,0;kN












Cycle control settings
Use the settings from global setup;True
Measuring function;Y (X)
Delta-X;Automatic
START condition;Dig-Input
STOP condition;Dig-Input
Cycle time out;20,00;s
Turning point RIGHT;YMAX
Turning point LEFT;NONE
Cut curve at;NONE










Evaluation settings
Capture only first NOK-EO for statistics;False
Hysteresis-X;0,0;%
Hysteresis-Y;100,0;%






Trigger Y settings
Threshold;1,8;kN
Value X at TRIGGER Y;0,00;mm
Approach from;BELOW






Block settings
Value X at block;XMAX
Block at;0,00;mm







Measuring curve
Number of measuring points;287
Ref. Graph on;ABSOLUTE
Curve segments;0;286;285;287;


Time;X(ABSOLUTE);Y;X (ABSOLUTE)


s;mm;kN;mm
0,0000;0,01004;-0,03474;0,01004
0,1007;0,42802;-0,03479;0,42802
0,1039;0,83063;-0,03479;0,83063
0,1063;1,26747;-0,03479;1,26747
0,1082;1,68463;-0,03478;1,68463
0,1099;2,12053;-0,03478;2,12053
0,1114;2,55283;-0,03477;2,55283
0,1127;2,95952;-0,03476;2,95952
0,1140;3,38506;-0,03476;3,38506
0,1153;3,82085;-0,03476;3,82085
0,1166;4,26002;-0,03474;4,26002
0,1179;4,69732;-0,03474;4,69732
0,1193;5,12926;-0,03473;5,12926
0,1206;5,55318;-0,03473;5,55318
0,1219;5,96685;-0,03473;5,96685
0,1232;6,36947;-0,03471;6,36947
0,1247;6,81608;-0,03469;6,81608
0,1262;7,25012;-0,03466;7,25012
0,1277;7,67392;-0,03464;7,67392
0,1292;8,08992;-0,03464;8,08992
0,1307;8,50022;-0,03461;8,50022
0,1322;8,90679;-0,03458;8,90679
0,1337;9,31138;-0,03455;9,31138
0,1352;9,71574;-0,03451;9,71574
0,1367;10,12127;-0,03451;10,12127
0,1382;10,52877;-0,03447;10,52877
0,1397;10,93884;-0,03443;10,93884
0,1412;11,35158;-0,03437;11,35158
0,1427;11,76676;-0,03433;11,76676
0,1442;12,18358;-0,03433;12,18358
0,1457;12,60156;-0,03426;12,60156
0,1472;13,01954;-0,03421;13,01954
0,1487;13,43694;-0,03414;13,43694
0,1502;13,85270;-0,03407;13,85270
0,1517;14,26614;-0,03407;14,26614
0,1532;14,67667;-0,03399;14,67667
0,1547;15,08383;-0,03392;15,08383
0,1562;15,48726;-0,03384;15,48726
0,1579;15,93666;-0,03374;15,93666
0,1596;16,38083;-0,03365;16,38083
0,1613;16,81988;-0,03365;16,81988
0,1630;17,25357;-0,03355;17,25357
0,1647;17,68214;-0,03345;17,68214
0,1664;18,10582;-0,03334;18,10582
0,1681;18,52497;-0,03323;18,52497
0,1698;18,93992;-0,03311;18,93992
0,1715;19,35115;-0,03298;19,35115
0,1731;19,75889;-0,03285;19,75889
0,1748;20,16360;-0,03271;20,16360
0,1765;20,56551;-0,03256;20,56551
0,1784;21,00898;-0,03241;21,00898
0,1803;21,44966;-0,03226;21,44966
0,1822;21,88777;-0,03210;21,88777
0,1840;22,32368;-0,03193;22,32368
0,1859;22,75760;-0,03176;22,75760
0,1878;23,18978;-0,03159;23,18978
0,1897;23,62033;-0,03140;23,62033
0,1915;24,04949;-0,03121;24,04949
0,1934;24,47724;-0,03101;24,47724
0,1953;24,90395;-0,03081;24,90395
0,1972;25,32961;-0,03060;25,32961
0,1991;25,75399;-0,03038;25,75399
0,2009;26,17756;-0,03016;26,17756
0,2028;26,60020;-0,02994;26,60020
0,2047;27,02213;-0,02970;27,02213
0,2066;27,44360;-0,02946;27,44360
0,2084;27,86461;-0,02922;27,86461
0,2103;28,28550;-0,02896;28,28550
0,2122;28,70615;-0,02870;28,70615
0,2141;29,12658;-0,02844;29,12658
0,2159;29,54665;-0,02816;29,54665
0,2178;29,96638;-0,02788;29,96638
0,2197;30,38552;-0,02760;30,38552
0,2216;30,80420;-0,02731;30,80420
0,2235;31,22229;-0,02701;31,22229
0,2253;31,64004;-0,02671;31,64004
0,2272;32,05755;-0,02639;32,05755
0,2291;32,47472;-0,02608;32,47472
0,2310;32,89177;-0,02576;32,89177
0,2328;33,30870;-0,02543;33,30870
0,2347;33,72540;-0,02510;33,72540
0,2366;34,14186;-0,02476;34,14186
0,2385;34,55798;-0,02440;34,55798
0,2404;34,97351;-0,02405;34,97351
0,2422;35,38824;-0,02369;35,38824
0,2441;35,80202;-0,02333;35,80202
0,2460;36,21500;-0,02296;36,21500
0,2479;36,62692;-0,02258;36,62692
0,2497;37,03792;-0,02220;37,03792
0,2516;37,44775;-0,02181;37,44775
0,2535;37,85665;-0,02141;37,85665
0,2554;38,26439;-0,02102;38,26439
0,2573;38,67143;-0,02061;38,67143
0,2591;39,07777;-0,02019;39,07777
0,2610;39,48352;-0,01978;39,48352
0,2629;39,88893;-0,01935;39,88893
0,2648;40,29387;-0,01892;40,29387
0,2666;40,69835;-0,01849;40,69835
0,2685;41,10213;-0,01805;41,10213
0,2704;41,50509;-0,01761;41,50509
0,2723;41,90701;-0,01716;41,90701
0,2741;42,30788;-0,01670;42,30788
0,2762;42,74739;-0,01625;42,74739
0,2783;43,18563;-0,01578;43,18563
0,2803;43,62234;-0,01531;43,62234
0,2824;44,05767;-0,01484;44,05767
0,2845;44,49113;-0,01436;44,49113
0,2865;44,92284;-0,01388;44,92284
0,2886;45,35269;-0,01339;45,35269
0,2907;45,78080;-0,01290;45,78080
0,2927;46,20739;-0,01240;46,20739
0,2948;46,63270;-0,01139;46,63270
0,2969;47,05673;-0,01088;47,05673
0,2989;47,47960;-0,01037;47,47960
0,3010;47,90096;-0,00985;47,90096
0,3031;48,32103;-0,00933;48,32103
0,3051;48,73936;-0,00881;48,73936
0,3072;49,15629;-0,00828;49,15629
0,3093;49,57159;-0,00774;49,57159
0,3113;49,98527;-0,00721;49,98527
0,3134;50,39719;-0,00667;50,39719
0,3155;50,80737;-0,00558;50,80737
0,3175;51,21592;-0,00504;51,21592
0,3196;51,62273;-0,00448;51,62273
0,3216;52,02814;-0,00393;52,02814
0,3237;52,43227;-0,00337;52,43227
0,3258;52,83500;-0,00281;52,83500
0,3278;53,23645;-0,00225;53,23645
0,3299;53,63650;-0,00168;53,63650
0,3322;54,07124;-0,00111;54,07124
0,3344;54,50447;0,00003;54,50447
0,3367;54,93653;0,00060;54,93653
0,3389;55,36755;0,00118;55,36755
0,3412;55,79763;0,00176;55,79763
0,3434;56,22644;0,00234;56,22644
0,3457;56,65396;0,00351;56,65396
0,3479;57,07974;0,00409;57,07974
0,3502;57,50400;0,00468;57,50400
0,3524;57,92710;0,00527;57,92710
0,3547;58,34927;0,00586;58,34927
0,3569;58,77086;0,00704;58,77086
0,3592;59,19187;0,00764;59,19187
0,3614;59,61241;0,00824;59,61241
0,3637;60,03225;0,00883;60,03225
0,3660;60,45162;0,00943;60,45162
0,3682;60,87030;0,01062;60,87030
0,3705;61,28816;0,01123;61,28816
0,3727;61,70533;0,01183;61,70533
0,3750;62,12191;0,01243;62,12191
0,3772;62,53791;0,01303;62,53791
0,3795;62,95321;0,01423;62,95321
0,3817;63,36793;0,01484;63,36793
0,3840;63,78207;0,01544;63,78207
0,3862;64,19574;0,01604;64,19574
0,3885;64,60907;0,01664;64,60907
0,3907;65,02216;0,01784;65,02216
0,3930;65,43467;0,01844;65,43467
0,3952;65,84671;0,01904;65,84671
0,3975;66,25782;0,01964;66,25782
0,3997;66,66800;0,02024;66,66800
0,4020;67,07725;0,02144;67,07725
0,4043;67,48557;0,02204;67,48557
0,4065;67,89296;0,02264;67,89296
0,4088;68,29953;0,02323;68,29953
0,4110;68,70505;0,02382;68,70505
0,4133;69,10965;0,02502;69,10965
0,4155;69,51319;0,02561;69,51319
0,4178;69,91581;0,02620;69,91581
0,4200;70,31761;0,02679;70,31761
0,4223;70,71859;0,02738;70,71859
0,4245;71,11877;0,02856;71,11877
0,4270;71,55094;0,02914;71,55094
0,4294;71,98173;0,02972;71,98173
0,4319;72,41100;0,03089;72,41100
0,4343;72,83910;0,03146;72,83910
0,4367;73,26593;0,03204;73,26593
0,4392;73,69171;0,03262;73,69171
0,4416;74,11644;0,03376;74,11644
0,4441;74,53989;0,03433;74,53989
0,4465;74,96194;0,03490;74,96194
0,4489;75,38248;0,03603;75,38248
0,4514;75,80162;0,03659;75,80162
0,4538;76,21949;0,03715;76,21949
0,4563;76,63595;0,03827;76,63595
0,4587;77,05102;0,03881;77,05102
0,4611;77,46469;0,03937;77,46469
0,4636;77,87685;0,03991;77,87685
0,4660;78,28715;0,04101;78,28715
0,4685;78,69558;0,04154;78,69558
0,4709;79,10239;0,04209;79,10239
0,4733;79,50757;0,04315;79,50757
0,4758;79,91099;0,04369;79,91099
0,4782;80,31245;0,04422;80,31245
0,4809;80,74253;0,04526;80,74253
0,4835;81,17029;0,04579;81,17029
0,4861;81,59560;0,04631;81,59560
0,4887;82,01882;0,04734;82,01882
0,4914;82,44029;0,04785;82,44029
0,4940;82,86048;0,04886;82,86048
0,4966;83,27950;0,04936;83,27950
0,4992;83,69737;0,04986;83,69737
0,5019;84,11407;0,05085;84,11407
0,5045;84,52948;0,05135;84,52948
0,5071;84,94386;0,05232;84,94386
0,5098;85,35764;0,05281;85,35764
0,5124;85,77120;0,05328;85,77120
0,5150;86,18487;0,05423;86,18487
0,5176;86,59855;0,05471;86,59855
0,5203;87,01233;0,05564;87,01233
0,5229;87,42589;0,05610;87,42589
0,5255;87,83933;0,05657;87,83933
0,5282;88,25242;0,05747;88,25242
0,5308;88,66505;0,05793;88,66505
0,5334;89,07686;0,05883;89,07686
0,5360;89,48774;0,05927;89,48774
0,5387;89,89768;0,05970;89,89768
0,5413;90,30682;0,06057;90,30682
0,5439;90,71537;0,06101;90,71537
0,5466;91,12334;0,06186;91,12334
0,5492;91,53084;0,06229;91,53084
0,5518;91,93741;0,06270;91,93741
0,5544;92,34305;0,06354;92,34305
0,5571;92,74765;0,06394;92,74765
0,5597;93,15096;0,06476;93,15096
0,5623;93,55311;0,06517;93,55311
0,5650;93,95386;0,06556;93,95386
0,5678;94,38185;0,06636;94,38185
0,5706;94,80868;0,06675;94,80868
0,5734;95,23469;0,06753;95,23469
0,5762;95,66012;0,06792;95,66012
0,5790;96,08508;0,06867;96,08508
0,5819;96,50934;0,06904;96,50934
0,5847;96,93279;0,06979;96,93279
0,5875;97,35531;0,07016;97,35531
0,5903;97,77702;0,07089;97,77702
0,5931;98,19814;0,07125;98,19814
0,5959;98,61868;0,07196;98,61868
0,5988;99,03840;0,07231;99,03840
0,6016;99,45685;0,07302;99,45685
0,6044;99,87331;0,07336;99,87331
0,6072;100,28769;0,07404;100,28769
0,6100;100,70019;0,07438;100,70019
0,6128;101,11119;0,07504;101,11119
0,6156;101,52125;0,07538;101,52125
0,6185;101,93074;0,07603;101,93074
0,6213;102,33987;0,07636;102,33987
0,6241;102,74807;0,07700;102,74807
0,6269;103,15546;0,07731;103,15546
0,6297;103,56191;0,07794;103,56191
0,6325;103,96744;0,07825;103,96744
0,6354;104,37238;0,07886;104,37238
0,6382;104,77686;0,07916;104,77686
0,6410;105,18110;0,07976;105,18110
0,6438;105,58535;0,08006;105,58535
0,6466;105,98948;0,08064;105,98948
0,6494;106,39325;0,08094;106,39325
0,6523;106,79552;0,08151;106,79552
0,6553;107,21967;0,08208;107,21967
0,6583;107,63474;0,08236;107,63474
0,6613;108,03700;0,08292;108,03700
0,6645;108,44555;0,08319;108,44555
0,6678;108,84933;0,08374;108,84933
0,6716;109,25148;0,08428;109,25148
0,6763;109,66527;0,08508;109,66527
0,6834;110,07173;0,08613;110,07173
0,7433;110,47260;0,09521;110,47260
0,7548;110,87544;0,09795;110,87544
0,7617;111,28074;0,09925;111,28074
0,7673;111,68195;0,10064;111,68195
0,7726;112,09039;0,10212;112,09039
0,7779;112,49044;0,10371;112,49044
0,7852;112,89713;0,10600;112,89713
1,2540;113,30266;0,66442;113,30266
1,2602;113,71074;0,67283;113,71074
1,2645;114,11743;0,67696;114,11743
1,2684;114,51935;0,68106;114,51935
1,2726;114,93709;0,68511;114,93709
1,2772;115,34914;0,69112;115,34914
1,2848;115,75396;0,69903;115,75396
1,4701;116,02272;1,30177;116,02272
1,5339;116,04693;1,90963;116,04693
1,5827;116,05915;2,51489;116,05915
1,6259;116,07126;3,12179;116,07126
1,6672;116,08057;3,73880;116,08057
1,7066;116,09035;4,34006;116,09035
1,7310;116,09384;4,71083;116,09384
1,7318;116,09396;4,71083;116,09396
