Part protocol
Network name;Part_OP10_MP-001_2020-08-25_14-32-59_0005_OK.csv
Protocol version;2.01.00

Index;Result information;Process values - curve related;Process values - EO related;Evaluation objects settings;Switch signal settings;Device information;Channel-X settings;Channel-Y settings;Cycle control settings;Evaluation settings;Trigger Y settings;Block settings;Measuring curve;Measuring points;Sequence;
Line;10;30;40;70;100;120;150;190;220;240;250;260;270;280;600;



Result information
Date;2020/08/25
Time;14:32:59
Cycle number;5
Total result;OK
Triggered switch signals
Part serial number;0005
Measuring program name;D57-Left
Measuring program number;1
Zero X offset;0,00;mm
Tara Y offset;0,0;kN









Process values - curve related
Block X;126,36;mm;XMIN-X;-0,13;mm
Block Y;7,4;kN;XMIN-Y;0,0;kN
Ref X;-;mm;XMAX-X;126,36;mm
Peak-peak X;126,49;mm;XMAX-Y;7,4;kN
Peak-peak Y;7,6;kN;YMIN-X;0,27;mm
;;;YMIN-Y;0,0;kN
;;;YMAX-X;126,36;mm
;;;YMAX-Y;7,5;kN

Process values - EO related;Result;Entry;Exit;XMIN-X;XMIN-Y;XMAX-X;XMAX-Y;YMIN-Y;YMIN-X;YMAX-Y;YMAX-X
;;;;mm;kN;mm;kN;kN;mm;kN;mm
EO-01;OK;0,8;0,8;;;;;0,8;124,50;0,8;125,58;;;;;;
EO-02;OK;126,31;126,33;126,31;4,5;126,32;5,1;;;;;;;;;;
EO-03;None;
EO-04;None;
























Evaluation objects settings;Reaction;X reference;Y-Reference;XMin;XMax;YMin;YMax;Entry;Exit;Curve part;Catch zone X;Catch zone Y
EO-01;UNI-BOX;ABSOLUTE;-;124,50;125,70;0,5;3,0;LEFT;RIGHT;ANY;+50%;+50%
EO-02;UNI-BOX;ABSOLUTE;-;125,80;127,20;4,5;5,5;BELOW;ABOVE;ANY;+50%;+50%
EO-03;OFF
EO-04;OFF

























Switch signal settings;Channel;Threshold at;;Trigger from;Reference;Latch until
Type S1;OFF
Type S2;OFF

















Device information
Device type;maXYmos BL
Device type number;5867B1011
Device serial number;5182443
Firmware version;2.3.2 (r22473-BL_v2.3.x)
-
-
-
-
-
IP Address;10.0.0.18
Network name;OP10
Profibus address;10
-
-
-
Station name;OP10
Company name;
Comment;











Channel-X settings
Use the settings from global setup;True
Sensor-X type;Â±10V
Unit;mm
Used range from;0,00;mm
Used range to;200,00;mm
Decimal places;XXXX.XX
Scaling by;Teach-In
Point 1;0,00;mm;-0,350;%
Point 2;200,00;mm;10,000;%
Invert signal;FALSE
Filter;20 Hz
Test point;0,00;mm
Tolerance;2,00;mm
Enable sensor test by dig-input;FALSE
Zoom from;110,00;mm
Zoom to;133,11;mm























Channel-Y settings
Use the settings from global setup;True
Sensor-Y type;Strain Gage
Unit;kN
Used range from;0,0;kN
Used range to;20,0;kN
Decimal places;XXXXX.X
Scaling by;Teach-In
Point 1;0,0;kN;-0,01562;%
Point 2;20,0;kN;2,00000;%
Invert signal;FALSE
Filter;1 Hz
Piezo reset;-
Test point;0,0;kN
Tolerance;0,1;kN
Enable sensor test by dig-input;FALSE
Zoom from;0,0;kN
Zoom to;6,0;kN












Cycle control settings
Use the settings from global setup;True
Measuring function;Y (X)
Delta-X;Automatic
START condition;Dig-Input
STOP condition;Dig-Input
Cycle time out;20,00;s
Turning point RIGHT;YMAX
Turning point LEFT;NONE
Cut curve at;NONE










Evaluation settings
Capture only first NOK-EO for statistics;False
Hysteresis-X;0,0;%
Hysteresis-Y;100,0;%






Trigger Y settings
Threshold;1,9;kN
Value X at TRIGGER Y;0,00;mm
Approach from;BELOW






Block settings
Value X at block;XMAX
Block at;0,00;mm







Measuring curve
Number of measuring points;314
Ref. Graph on;ABSOLUTE
Curve segments;0;314;313;314;


Time;X(ABSOLUTE);Y;X (ABSOLUTE)


s;mm;kN;mm
0,0000;-0,13185;-0,04604;-0,13185
0,1011;0,26960;-0,04606;0,26960
0,1051;0,68374;-0,04606;0,68374
0,1079;1,10044;-0,04606;1,10044
0,1102;1,50969;-0,04606;1,50969
0,1122;1,94419;-0,04606;1,94419
0,1141;2,38813;-0,04606;2,38813
0,1158;2,82706;-0,04606;2,82706
0,1173;3,24795;-0,04606;3,24795
0,1188;3,69712;-0,04606;3,69712
0,1201;4,11312;-0,04606;4,11312
0,1214;4,55031;-0,04605;4,55031
0,1227;5,00821;-0,04605;5,00821
0,1239;5,41502;-0,04605;5,41502
0,1250;5,83172;-0,04604;5,83172
0,1261;6,25400;-0,04604;6,25400
0,1272;6,67675;-0,04604;6,67675
0,1284;7,09531;-0,04603;7,09531
0,1295;7,50561;-0,04603;7,50561
0,1308;7,97061;-0,04602;7,97061
0,1321;8,41862;-0,04601;8,41862
0,1334;8,84906;-0,04601;8,84906
0,1348;9,26203;-0,04600;9,26203
0,1363;9,71272;-0,04599;9,71272
0,1378;10,14117;-0,04598;10,14117
0,1393;10,54914;-0,04596;10,54914
0,1409;10,98703;-0,04596;10,98703
0,1426;11,40838;-0,04594;11,40838
0,1443;11,81926;-0,04594;11,81926
0,1460;12,22490;-0,04592;12,22490
0,1477;12,62798;-0,04590;12,62798
0,1494;13,03025;-0,04587;13,03025
0,1511;13,43309;-0,04585;13,43309
0,1528;13,83827;-0,04582;13,83827
0,1545;14,24764;-0,04580;14,24764
0,1562;14,66154;-0,04577;14,66154
0,1578;15,07952;-0,04577;15,07952
0,1595;15,50053;-0,04574;15,50053
0,1612;15,92421;-0,04570;15,92421
0,1629;16,35068;-0,04568;16,35068
0,1646;16,78019;-0,04564;16,78019
0,1663;17,21248;-0,04559;17,21248
0,1680;17,64652;-0,04556;17,64652
0,1697;18,08196;-0,04551;18,08196
0,1714;18,51880;-0,04547;18,51880
0,1730;18,95750;-0,04542;18,95750
0,1747;19,39817;-0,04542;19,39817
0,1764;19,84013;-0,04537;19,84013
0,1781;20,28290;-0,04532;20,28290
0,1798;20,72626;-0,04527;20,72626
0,1815;21,17066;-0,04521;21,17066
0,1832;21,61634;-0,04515;21,61634
0,1849;22,06330;-0,04509;22,06330
0,1866;22,51073;-0,04503;22,51073
0,1883;22,95804;-0,04496;22,95804
0,1899;23,40512;-0,04489;23,40512
0,1916;23,85266;-0,04489;23,85266
0,1933;24,30114;-0,04482;24,30114
0,1950;24,75054;-0,04475;24,75054
0,1967;25,20030;-0,04468;25,20030
0,1984;25,64947;-0,04460;25,64947
0,2001;26,09818;-0,04452;26,09818
0,2018;26,54665;-0,04444;26,54665
0,2035;26,99536;-0,04435;26,99536
0,2052;27,44419;-0,04426;27,44419
0,2068;27,89231;-0,04418;27,89231
0,2085;28,33904;-0,04418;28,33904
0,2102;28,78437;-0,04408;28,78437
0,2119;29,22831;-0,04399;29,22831
0,2136;29,67131;-0,04389;29,67131
0,2153;30,11327;-0,04380;30,11327
0,2170;30,55360;-0,04370;30,55360
0,2187;30,99183;-0,04359;30,99183
0,2204;31,42797;-0,04348;31,42797
0,2221;31,86224;-0,04338;31,86224
0,2237;32,29477;-0,04327;32,29477
0,2254;32,72579;-0,04327;32,72579
0,2271;33,15482;-0,04316;33,15482
0,2288;33,58211;-0,04305;33,58211
0,2305;34,00743;-0,04293;34,00743
0,2322;34,43122;-0,04282;34,43122
0,2339;34,85339;-0,04270;34,85339
0,2356;35,27393;-0,04257;35,27393
0,2373;35,69250;-0,04245;35,69250
0,2389;36,10884;-0,04232;36,10884
0,2406;36,52322;-0,04220;36,52322
0,2423;36,93561;-0,04220;36,93561
0,2440;37,34614;-0,04207;37,34614
0,2457;37,75457;-0,04194;37,75457
0,2474;38,16103;-0,04181;38,16103
0,2491;38,56551;-0,04168;38,56551
0,2508;38,96824;-0,04154;38,96824
0,2525;39,36922;-0,04140;39,36922
0,2543;39,81258;-0,04126;39,81258
0,2562;40,25372;-0,04112;40,25372
0,2581;40,69276;-0,04098;40,69276
0,2600;41,12972;-0,04084;41,12972
0,2619;41,56492;-0,04070;41,56492
0,2637;41,99838;-0,04055;41,99838
0,2656;42,42998;-0,04041;42,42998
0,2675;42,85995;-0,04026;42,85995
0,2694;43,28840;-0,04011;43,28840
0,2712;43,71534;-0,03996;43,71534
0,2731;44,14054;-0,03981;44,14054
0,2750;44,56376;-0,03966;44,56376
0,2769;44,98511;-0,03950;44,98511
0,2787;45,40437;-0,03935;45,40437
0,2806;45,82177;-0,03920;45,82177
0,2825;46,23707;-0,03904;46,23707
0,2844;46,65028;-0,03888;46,65028
0,2863;47,06116;-0,03872;47,06116
0,2881;47,46971;-0,03857;47,46971
0,2900;47,87605;-0,03841;47,87605
0,2919;48,28029;-0,03824;48,28029
0,2938;48,68256;-0,03809;48,68256
0,2956;49,08308;-0,03793;49,08308
0,2977;49,52154;-0,03776;49,52154
0,2998;49,95803;-0,03760;49,95803
0,3018;50,39230;-0,03744;50,39230
0,3039;50,82437;-0,03727;50,82437
0,3060;51,25457;-0,03711;51,25457
0,3080;51,68291;-0,03695;51,68291
0,3101;52,10962;-0,03661;52,10962
0,3122;52,53446;-0,03645;52,53446
0,3142;52,95768;-0,03628;52,95768
0,3163;53,37903;-0,03611;53,37903
0,3184;53,79864;-0,03595;53,79864
0,3204;54,21651;-0,03578;54,21651
0,3225;54,63262;-0,03561;54,63262
0,3246;55,04711;-0,03545;55,04711
0,3266;55,46008;-0,03528;55,46008
0,3287;55,87131;-0,03511;55,87131
0,3308;56,28091;-0,03478;56,28091
0,3328;56,68900;-0,03460;56,68900
0,3349;57,09534;-0,03444;57,09534
0,3369;57,50016;-0,03427;57,50016
0,3390;57,90336;-0,03410;57,90336
0,3411;58,30528;-0,03394;58,30528
0,3431;58,70603;-0,03376;58,70603
0,3454;59,14228;-0,03360;59,14228
0,3476;59,57737;-0,03326;59,57737
0,3499;60,01165;-0,03310;60,01165
0,3522;60,44499;-0,03292;60,44499
0,3544;60,87787;-0,03275;60,87787
0,3567;61,31028;-0,03259;61,31028
0,3589;61,74246;-0,03225;61,74246
0,3612;62,17429;-0,03209;62,17429
0,3634;62,60600;-0,03191;62,60600
0,3657;63,03783;-0,03174;63,03783
0,3679;63,47001;-0,03158;63,47001
0,3702;63,90289;-0,03124;63,90289
0,3724;64,33682;-0,03108;64,33682
0,3747;64,77167;-0,03091;64,77167
0,3769;65,20700;-0,03074;65,20700
0,3792;65,64267;-0,03058;65,64267
0,3814;66,07857;-0,03024;66,07857
0,3837;66,51459;-0,03007;66,51459
0,3859;66,95073;-0,02990;66,95073
0,3882;67,38710;-0,02974;67,38710
0,3903;67,78715;-0,02957;67,78715
0,3923;68,18732;-0,02940;68,18732
0,3946;68,62346;-0,02907;68,62346
0,3968;69,05913;-0,02890;69,05913
0,3991;69,49411;-0,02874;69,49411
0,4013;69,92850;-0,02858;69,92850
0,4036;70,36207;-0,02841;70,36207
0,4058;70,79472;-0,02808;70,79472
0,4081;71,22620;-0,02791;71,22620
0,4104;71,65628;-0,02775;71,65628
0,4126;72,08462;-0,02758;72,08462
0,4149;72,51121;-0,02741;72,51121
0,4171;72,93618;-0,02709;72,93618
0,4194;73,35974;-0,02692;73,35974
0,4216;73,78191;-0,02675;73,78191
0,4239;74,20280;-0,02659;74,20280
0,4261;74,62218;-0,02643;74,62218
0,4284;75,03992;-0,02610;75,03992
0,4306;75,45604;-0,02593;75,45604
0,4329;75,87030;-0,02577;75,87030
0,4351;76,28269;-0,02561;76,28269
0,4374;76,69322;-0,02544;76,69322
0,4396;77,10189;-0,02512;77,10189
0,4419;77,50834;-0,02496;77,50834
0,4441;77,91247;-0,02479;77,91247
0,4464;78,31404;-0,02463;78,31404
0,4488;78,74610;-0,02447;78,74610
0,4513;79,17525;-0,02414;79,17525
0,4537;79,60173;-0,02398;79,60173
0,4562;80,02576;-0,02382;80,02576
0,4586;80,44747;-0,02350;80,44747
0,4610;80,86719;-0,02334;80,86719
0,4635;81,28447;-0,02317;81,28447
0,4659;81,69942;-0,02286;81,69942
0,4684;82,11193;-0,02269;82,11193
0,4708;82,52235;-0,02253;82,52235
0,4732;82,93113;-0,02238;82,93113
0,4757;83,33875;-0,02206;83,33875
0,4781;83,74532;-0,02190;83,74532
0,4806;84,15073;-0,02174;84,15073
0,4830;84,55474;-0,02142;84,55474
0,4855;84,95701;-0,02127;84,95701
0,4879;85,35764;-0,02111;85,35764
0,4905;85,78750;-0,02079;85,78750
0,4931;86,21572;-0,02064;86,21572
0,4958;86,64266;-0,02048;86,64266
0,4984;87,06832;-0,02017;87,06832
0,5010;87,49282;-0,02002;87,49282
0,5037;87,91615;-0,01970;87,91615
0,5063;88,33809;-0,01954;88,33809
0,5089;88,75851;-0,01940;88,75851
0,5115;89,17719;-0,01908;89,17719
0,5142;89,59424;-0,01893;89,59424
0,5168;90,00966;-0,01862;90,00966
0,5194;90,42345;-0,01847;90,42345
0,5221;90,83526;-0,01831;90,83526
0,5247;91,24520;-0,01801;91,24520
0,5273;91,65306;-0,01785;91,65306
0,5299;92,05916;-0,01755;92,05916
0,5326;92,46387;-0,01740;92,46387
0,5352;92,86742;-0,01725;92,86742
0,5378;93,26980;-0,01694;93,26980
0,5405;93,67114;-0,01679;93,67114
0,5431;94,07142;-0,01649;94,07142
0,5459;94,49895;-0,01634;94,49895
0,5487;94,92472;-0,01604;94,92472
0,5515;95,34876;-0,01589;95,34876
0,5544;95,77081;-0,01558;95,77081
0,5572;96,19088;-0,01543;96,19088
0,5600;96,60944;-0,01514;96,60944
0,5628;97,02684;-0,01499;97,02684
0,5656;97,44366;-0,01469;97,44366
0,5684;97,85989;-0,01455;97,85989
0,5712;98,27566;-0,01425;98,27566
0,5741;98,69108;-0,01410;98,69108
0,5769;99,10603;-0,01380;99,10603
0,5797;99,52063;-0,01366;99,52063
0,5825;99,93466;-0,01336;99,93466
0,5853;100,34856;-0,01321;100,34856
0,5881;100,76270;-0,01292;100,76270
0,5910;101,17765;-0,01277;101,17765
0,5938;101,59377;-0,01248;101,59377
0,5966;102,01140;-0,01233;102,01140
0,5994;102,43054;-0,01204;102,43054
0,6022;102,85131;-0,01189;102,85131
0,6050;103,27220;-0,01159;103,27220
0,6079;103,69065;-0,01145;103,69065
0,6107;104,10572;-0,01116;104,10572
0,6135;104,51683;-0,01101;104,51683
0,6163;104,92585;-0,01071;104,92585
0,6191;105,33486;-0,01057;105,33486
0,6219;105,74539;-0,01028;105,74539
0,6248;106,15685;-0,01013;106,15685
0,6276;106,56750;-0,00983;106,56750
0,6304;106,97559;-0,00969;106,97559
0,6332;107,37983;-0,00939;107,37983
0,6362;107,80514;-0,00924;107,80514
0,6392;108,22254;-0,00894;108,22254
0,6422;108,63167;-0,00880;108,63167
0,6452;109,03382;-0,00849;109,03382
0,6484;109,45599;-0,00819;109,45599
0,6516;109,87502;-0,00804;109,87502
0,6548;110,29253;-0,00773;110,29253
0,6580;110,70970;-0,00742;110,70970
0,6612;111,12709;-0,00710;111,12709
0,6644;111,54519;-0,00695;111,54519
0,6676;111,96526;-0,00663;111,96526
0,6708;112,38918;-0,00631;112,38918
0,6738;112,79307;-0,00614;112,79307
0,6768;113,20302;-0,00582;113,20302
0,6798;113,61926;-0,00565;113,61926
0,6828;114,03991;-0,00532;114,03991
0,6858;114,46255;-0,00497;114,46255
0,6888;114,88483;-0,00481;114,88483
0,6918;115,30456;-0,00446;115,30456
0,6948;115,71893;-0,00428;115,71893
0,6978;116,12655;-0,00393;116,12655
0,7008;116,52858;-0,00357;116,52858
0,7040;116,95075;-0,00339;116,95075
0,7072;117,36815;-0,00302;117,36815
0,7104;117,77786;-0,00265;117,77786
0,7139;118,19188;-0,00227;118,19188
0,7188;118,60393;-0,00188;118,60393
0,8219;119,00398;0,02067;119,00398
1,2807;119,09442;0,62201;119,09442
1,2931;119,50507;0,63567;119,50507
1,2986;119,91839;0,64234;119,91839
1,3034;120,33171;0,64892;120,33171
1,3085;120,74224;0,65328;120,74224
1,3151;121,14242;0,66188;121,14242
1,3252;121,54456;0,67258;121,54456
1,3357;121,94474;0,68547;121,94474
1,3432;122,34793;0,69426;122,34793
1,3522;122,75264;0,70559;122,75264
1,3646;123,15479;0,72000;123,15479
1,3750;123,55566;0,73561;123,55566
1,3832;123,96468;0,74684;123,96468
1,3896;124,37579;0,75884;124,37579
1,3958;124,77701;0,76838;124,77701
1,4028;125,18009;0,78184;125,18009
1,4093;125,58107;0,79255;125,58107
1,4178;125,98171;0,81154;125,98171
1,5792;126,21927;1,41659;126,21927
1,6712;126,25477;2,02615;126,25477
1,7426;126,27549;2,63065;126,27549
1,8045;126,28993;3,23979;126,28993
1,8608;126,30110;3,84326;126,30110
1,9153;126,31379;4,45140;126,31379
1,9697;126,32042;5,06486;126,32042
2,0242;126,33101;5,66738;126,33101
2,0824;126,33881;6,28547;126,33881
2,1443;126,34580;6,90340;126,34580
2,2010;126,35674;7,42440;126,35674
2,2100;126,35592;7,50733;126,35592
2,2138;126,35534;7,54019;126,35534
