Part protocol
Network name;Part_OP10_MP-002_2020-08-26_15-42-47_0028_OK.csv
Protocol version;2.01.00

Index;Result information;Process values - curve related;Process values - EO related;Evaluation objects settings;Switch signal settings;Device information;Channel-X settings;Channel-Y settings;Cycle control settings;Evaluation settings;Trigger Y settings;Block settings;Measuring curve;Measuring points;Sequence;
Line;10;30;40;70;100;120;150;190;220;240;250;260;270;280;570;



Result information
Date;2020/08/26
Time;15:42:47
Cycle number;28
Total result;OK
Triggered switch signals
Part serial number;0028
Measuring program name;D57-Right
Measuring program number;2
Zero X offset;0,00;mm
Tara Y offset;0,0;kN









Process values - curve related
Block X;116,11;mm;XMIN-X;-0,03;mm
Block Y;4,8;kN;XMIN-Y;0,0;kN
Ref X;-;mm;XMAX-X;116,11;mm
Peak-peak X;116,13;mm;XMAX-Y;4,8;kN
Peak-peak Y;4,8;kN;YMIN-X;-0,03;mm
;;;YMIN-Y;0,0;kN
;;;YMAX-X;116,11;mm
;;;YMAX-Y;4,8;kN

Process values - EO related;Result;Entry;Exit;XMIN-X;XMIN-Y;XMAX-X;XMAX-Y;YMIN-Y;YMIN-X;YMAX-Y;YMAX-X
;;;;mm;kN;mm;kN;kN;mm;kN;mm
EO-01;OK;0,7;0,7;;;;;0,7;115,00;0,7;115,40;;;;;;
EO-02;OK;;116,09;116,07;2,3;116,09;3,1;2,3;116,07;;;;;;;;
EO-03;None;
EO-04;None;
























Evaluation objects settings;Reaction;X reference;Y-Reference;XMin;XMax;YMin;YMax;Entry;Exit;Curve part;Catch zone X;Catch zone Y
EO-01;UNI-BOX;ABSOLUTE;-;115,00;115,50;0,4;2,0;LEFT;RIGHT;ANY;+50%;+50%
EO-02;UNI-BOX;ABSOLUTE;-;115,40;117,10;2,3;3,3;ANY;ABOVE;ANY;+50%;+50%
EO-03;OFF
EO-04;OFF

























Switch signal settings;Channel;Threshold at;;Trigger from;Reference;Latch until
Type S1;OFF
Type S2;OFF

















Device information
Device type;maXYmos BL
Device type number;5867B1011
Device serial number;5182443
Firmware version;2.3.2 (r22473-BL_v2.3.x)
-
-
-
-
-
IP Address;10.0.0.18
Network name;OP10
Profibus address;10
-
-
-
Station name;OP10
Company name;
Comment;











Channel-X settings
Use the settings from global setup;True
Sensor-X type;Â±10V
Unit;mm
Used range from;0,00;mm
Used range to;200,00;mm
Decimal places;XXXX.XX
Scaling by;Teach-In
Point 1;0,00;mm;-0,350;%
Point 2;200,00;mm;10,000;%
Invert signal;FALSE
Filter;20 Hz
Test point;0,00;mm
Tolerance;2,00;mm
Enable sensor test by dig-input;FALSE
Zoom from;100,00;mm
Zoom to;120,00;mm























Channel-Y settings
Use the settings from global setup;True
Sensor-Y type;Strain Gage
Unit;kN
Used range from;0,0;kN
Used range to;20,0;kN
Decimal places;XXXXX.X
Scaling by;Teach-In
Point 1;0,0;kN;-0,01562;%
Point 2;20,0;kN;2,00000;%
Invert signal;FALSE
Filter;1 Hz
Piezo reset;-
Test point;0,0;kN
Tolerance;0,1;kN
Enable sensor test by dig-input;FALSE
Zoom from;0,0;kN
Zoom to;5,0;kN












Cycle control settings
Use the settings from global setup;True
Measuring function;Y (X)
Delta-X;Automatic
START condition;Dig-Input
STOP condition;Dig-Input
Cycle time out;20,00;s
Turning point RIGHT;YMAX
Turning point LEFT;NONE
Cut curve at;NONE










Evaluation settings
Capture only first NOK-EO for statistics;False
Hysteresis-X;0,0;%
Hysteresis-Y;100,0;%






Trigger Y settings
Threshold;1,8;kN
Value X at TRIGGER Y;0,00;mm
Approach from;BELOW






Block settings
Value X at block;XMAX
Block at;0,00;mm







Measuring curve
Number of measuring points;287
Ref. Graph on;ABSOLUTE
Curve segments;0;286;285;287;


Time;X(ABSOLUTE);Y;X (ABSOLUTE)


s;mm;kN;mm
0,0000;-0,02593;-0,03500;-0,02593
0,0964;0,38832;-0,03499;0,38832
0,0997;0,81725;-0,03498;0,81725
0,1020;1,22370;-0,03498;1,22370
0,1039;1,64028;-0,03498;1,64028
0,1056;2,07561;-0,03498;2,07561
0,1071;2,50662;-0,03497;2,50662
0,1084;2,91156;-0,03496;2,91156
0,1097;3,33466;-0,03496;3,33466
0,1110;3,76801;-0,03495;3,76801
0,1123;4,20473;-0,03494;4,20473
0,1136;4,63958;-0,03492;4,63958
0,1149;5,06897;-0,03492;5,06897
0,1163;5,49044;-0,03490;5,49044
0,1176;5,90179;-0,03489;5,90179
0,1189;6,30184;-0,03489;6,30184
0,1204;6,74519;-0,03486;6,74519
0,1219;7,17493;-0,03485;7,17493
0,1234;7,59372;-0,03482;7,59372
0,1249;8,00402;-0,03479;8,00402
0,1264;8,40792;-0,03479;8,40792
0,1281;8,85732;-0,03476;8,85732
0,1298;9,30428;-0,03473;9,30428
0,1315;9,75113;-0,03469;9,75113
0,1332;10,19984;-0,03465;10,19984
0,1347;10,60117;-0,03460;10,60117
0,1362;11,00507;-0,03456;11,00507
0,1377;11,41152;-0,03456;11,41152
0,1392;11,82019;-0,03450;11,82019
0,1407;12,23049;-0,03445;12,23049
0,1422;12,64183;-0,03438;12,64183
0,1437;13,05341;-0,03432;13,05341
0,1452;13,46440;-0,03432;13,46440
0,1467;13,87400;-0,03425;13,87400
0,1482;14,28151;-0,03418;14,28151
0,1497;14,68633;-0,03410;14,68633
0,1512;15,08802;-0,03401;15,08802
0,1529;15,53568;-0,03401;15,53568
0,1546;15,97845;-0,03392;15,97845
0,1562;16,41622;-0,03383;16,41622
0,1579;16,84898;-0,03373;16,84898
0,1596;17,27650;-0,03362;17,27650
0,1613;17,69914;-0,03352;17,69914
0,1630;18,11712;-0,03340;18,11712
0,1647;18,53055;-0,03328;18,53055
0,1664;18,94004;-0,03316;18,94004
0,1681;19,34591;-0,03303;19,34591
0,1698;19,74864;-0,03303;19,74864
0,1716;20,19269;-0,03289;20,19269
0,1735;20,63360;-0,03275;20,63360
0,1754;21,07149;-0,03261;21,07149
0,1773;21,50658;-0,03245;21,50658
0,1792;21,93922;-0,03229;21,93922
0,1810;22,36965;-0,03212;22,36965
0,1829;22,79799;-0,03196;22,79799
0,1848;23,22447;-0,03178;23,22447
0,1867;23,64920;-0,03160;23,64920
0,1885;24,07242;-0,03141;24,07242
0,1904;24,49412;-0,03122;24,49412
0,1923;24,91466;-0,03101;24,91466
0,1942;25,33427;-0,03081;25,33427
0,1960;25,75330;-0,03060;25,75330
0,1979;26,17197;-0,03037;26,17197
0,1998;26,59030;-0,03014;26,59030
0,2017;27,00863;-0,02991;27,00863
0,2036;27,42696;-0,02968;27,42696
0,2054;27,84552;-0,02943;27,84552
0,2073;28,26431;-0,02918;28,26431
0,2092;28,68369;-0,02892;28,68369
0,2111;29,10330;-0,02866;29,10330
0,2129;29,52314;-0,02838;29,52314
0,2148;29,94321;-0,02812;29,94321
0,2167;30,36352;-0,02783;30,36352
0,2186;30,78418;-0,02754;30,78418
0,2205;31,20530;-0,02725;31,20530
0,2223;31,62689;-0,02694;31,62689
0,2242;32,04894;-0,02663;32,04894
0,2261;32,47158;-0,02632;32,47158
0,2280;32,89456;-0,02600;32,89456
0,2298;33,31801;-0,02567;33,31801
0,2317;33,74169;-0,02534;33,74169
0,2336;34,16561;-0,02500;34,16561
0,2355;34,58976;-0,02465;34,58976
0,2374;35,01390;-0,02430;35,01390
0,2392;35,43794;-0,02395;35,43794
0,2411;35,86150;-0,02358;35,86150
0,2430;36,28460;-0,02321;36,28460
0,2449;36,70724;-0,02284;36,70724
0,2467;37,12918;-0,02246;37,12918
0,2486;37,55053;-0,02207;37,55053
0,2505;37,97095;-0,02167;37,97095
0,2524;38,39068;-0,02127;38,39068
0,2542;38,80959;-0,02087;38,80959
0,2561;39,22768;-0,02046;39,22768
0,2580;39,64497;-0,02004;39,64497
0,2599;40,06120;-0,01962;40,06120
0,2618;40,47638;-0,01919;40,47638
0,2636;40,89006;-0,01877;40,89006
0,2655;41,30233;-0,01832;41,30233
0,2674;41,71286;-0,01788;41,71286
0,2693;42,12153;-0,01743;42,12153
0,2711;42,52845;-0,01698;42,52845
0,2730;42,93351;-0,01653;42,93351
0,2749;43,33671;-0,01605;43,33671
0,2768;43,73816;-0,01559;43,73816
0,2788;44,17732;-0,01464;44,17732
0,2809;44,61404;-0,01416;44,61404
0,2830;45,04832;-0,01367;45,04832
0,2850;45,48015;-0,01318;45,48015
0,2871;45,90976;-0,01268;45,90976
0,2892;46,33694;-0,01218;46,33694
0,2912;46,76190;-0,01168;46,76190
0,2933;47,18454;-0,01117;47,18454
0,2954;47,60496;-0,01066;47,60496
0,2974;48,02282;-0,01014;48,02282
0,2995;48,43848;-0,00909;48,43848
0,3016;48,85180;-0,00857;48,85180
0,3036;49,26291;-0,00804;49,26291
0,3057;49,67204;-0,00750;49,67204
0,3078;50,07908;-0,00696;50,07908
0,3098;50,48426;-0,00643;50,48426
0,3119;50,88757;-0,00588;50,88757
0,3139;51,28902;-0,00533;51,28902
0,3162;51,72469;-0,00478;51,72469
0,3185;52,15827;-0,00367;52,15827
0,3207;52,58998;-0,00311;52,58998
0,3230;53,02018;-0,00255;53,02018
0,3252;53,44899;-0,00198;53,44899
0,3275;53,87663;-0,00142;53,87663
0,3297;54,30299;-0,00028;54,30299
0,3320;54,72830;0,00029;54,72830
0,3342;55,15233;0,00087;55,15233
0,3365;55,57532;0,00145;55,57532
0,3387;55,99714;0,00202;55,99714
0,3410;56,41768;0,00319;56,41768
0,3432;56,83705;0,00377;56,83705
0,3455;57,25538;0,00436;57,25538
0,3477;57,67289;0,00495;57,67289
0,3500;58,08994;0,00554;58,08994
0,3522;58,50676;0,00672;58,50676
0,3545;58,92346;0,00731;58,92346
0,3568;59,34027;0,00790;59,34027
0,3590;59,75685;0,00850;59,75685
0,3613;60,17332;0,00910;60,17332
0,3635;60,58932;0,01029;60,58932
0,3658;61,00520;0,01088;61,00520
0,3680;61,42097;0,01149;61,42097
0,3703;61,83662;0,01209;61,83662
0,3725;62,25216;0,01268;62,25216
0,3748;62,66723;0,01388;62,66723
0,3770;63,08172;0,01448;63,08172
0,3793;63,49527;0,01509;63,49527
0,3815;63,90790;0,01568;63,90790
0,3838;64,31971;0,01628;64,31971
0,3860;64,73070;0,01748;64,73070
0,3883;65,14077;0,01808;65,14077
0,3905;65,55013;0,01868;65,55013
0,3928;65,95845;0,01928;65,95845
0,3951;66,36572;0,01987;66,36572
0,3973;66,77229;0,02107;66,77229
0,3996;67,17805;0,02167;67,17805
0,4018;67,58311;0,02226;67,58311
0,4041;67,98747;0,02285;67,98747
0,4063;68,39102;0,02345;68,39102
0,4086;68,79387;0,02463;68,79387
0,4108;69,19578;0,02522;69,19578
0,4131;69,59677;0,02582;69,59677
0,4155;70,02988;0,02640;70,02988
0,4180;70,46182;0,02757;70,46182
0,4204;70,89261;0,02816;70,89261
0,4228;71,32211;0,02874;71,32211
0,4253;71,75022;0,02990;71,75022
0,4277;72,17681;0,03048;72,17681
0,4302;72,60177;0,03105;72,60177
0,4326;73,02510;0,03163;73,02510
0,4350;73,44681;0,03278;73,44681
0,4375;73,86688;0,03334;73,86688
0,4399;74,28521;0,03391;74,28521
0,4424;74,70168;0,03504;74,70168
0,4448;75,11628;0,03560;75,11628
0,4472;75,52891;0,03616;75,52891
0,4497;75,93990;0,03728;75,93990
0,4521;76,34938;0,03783;76,34938
0,4546;76,75782;0,03838;76,75782
0,4570;77,16579;0,03892;77,16579
0,4594;77,57317;0,04002;77,57317
0,4619;77,97986;0,04056;77,97986
0,4643;78,38574;0,04110;78,38574
0,4668;78,79068;0,04217;78,79068
0,4692;79,19446;0,04270;79,19446
0,4717;79,59684;0,04324;79,59684
0,4741;79,99794;0,04428;79,99794
0,4767;80,42826;0,04481;80,42826
0,4793;80,85671;0,04533;80,85671
0,4820;81,28342;0,04636;81,28342
0,4846;81,70815;0,04687;81,70815
0,4872;82,13114;0,04788;82,13114
0,4899;82,55249;0,04838;82,55249
0,4925;82,97257;0,04888;82,97257
0,4951;83,39124;0,04988;83,39124
0,4977;83,80887;0,05037;83,80887
0,5004;84,22569;0,05135;84,22569
0,5030;84,64157;0,05183;84,64157
0,5056;85,05688;0,05231;85,05688
0,5083;85,47160;0,05327;85,47160
0,5109;85,88597;0,05374;85,88597
0,5135;86,29987;0,05468;86,29987
0,5161;86,71308;0,05514;86,71308
0,5188;87,12559;0,05560;87,12559
0,5214;87,53740;0,05652;87,53740
0,5240;87,94863;0,05696;87,94863
0,5267;88,35951;0,05786;88,35951
0,5293;88,76980;0,05831;88,76980
0,5319;89,17963;0,05875;89,17963
0,5345;89,58865;0,05962;89,58865
0,5372;89,99674;0,06006;89,99674
0,5398;90,40401;0,06092;90,40401
0,5424;90,81023;0,06134;90,81023
0,5451;91,21576;0,06176;91,21576
0,5477;91,62047;0,06259;91,62047
0,5503;92,02424;0,06301;92,02424
0,5529;92,42698;0,06382;92,42698
0,5556;92,82854;0,06423;92,82854
0,5582;93,22871;0,06463;93,22871
0,5610;93,65612;0,06543;93,65612
0,5638;94,08213;0,06582;94,08213
0,5666;94,50675;0,06660;94,50675
0,5695;94,92996;0,06698;94,92996
0,5723;95,35167;0,06775;95,35167
0,5751;95,77209;0,06813;95,77209
0,5779;96,19100;0,06887;96,19100
0,5807;96,60840;0,06924;96,60840
0,5835;97,02463;0,06997;97,02463
0,5864;97,44040;0,07033;97,44040
0,5892;97,85570;0,07104;97,85570
0,5920;98,27077;0,07141;98,27077
0,5948;98,68526;0,07210;98,68526
0,5976;99,09858;0,07245;99,09858
0,6004;99,51027;0,07314;99,51027
0,6033;99,92045;0,07347;99,92045
0,6061;100,32912;0,07414;100,32912
0,6089;100,73639;0,07447;100,73639
0,6117;101,14273;0,07513;101,14273
0,6145;101,54872;0,07545;101,54872
0,6173;101,95436;0,07609;101,95436
0,6202;102,35966;0,07641;102,35966
0,6230;102,76460;0,07703;102,76460
0,6258;103,16896;0,07735;103,16896
0,6286;103,57274;0,07796;103,57274
0,6314;103,97605;0,07826;103,97605
0,6342;104,37890;0,07887;104,37890
0,6371;104,78163;0,07916;104,78163
0,6399;105,18448;0,07975;105,18448
0,6427;105,58733;0,08004;105,58733
0,6455;105,99006;0,08062;105,99006
0,6483;106,39221;0,08090;106,39221
0,6513;106,81833;0,08146;106,81833
0,6543;107,23783;0,08201;107,23783
0,6573;107,64649;0,08229;107,64649
0,6605;108,06424;0,08284;108,06424
0,6639;108,48117;0,08337;108,48117
0,6675;108,88204;0,08391;108,88204
0,6718;109,29618;0,08444;109,29618
0,6776;109,70589;0,08523;109,70589
0,7230;110,10630;0,09172;110,10630
0,7478;110,51124;0,09617;110,51124
0,7555;110,92026;0,09779;110,92026
0,7613;111,33125;0,09955;111,33125
0,7664;111,74353;0,10049;111,74353
0,7711;112,15126;0,10198;112,15126
0,7760;112,55446;0,10303;112,55446
0,7829;112,95859;0,10528;112,95859
1,2570;113,36016;0,66863;113,36016
1,2634;113,77488;0,67490;113,77488
1,2679;114,18191;0,67902;114,18191
1,2722;114,59314;0,68512;114,59314
1,2765;114,99378;0,68913;114,99378
1,2816;115,39756;0,69506;115,39756
1,2904;115,79831;0,70286;115,79831
1,4804;116,03762;1,31429;116,03762
1,5442;116,06032;1,91945;116,06032
1,5930;116,07568;2,52385;116,07568
1,6362;116,08639;3,13163;116,08639
1,6775;116,09629;3,75082;116,09629
1,7169;116,10315;4,35495;116,10315
1,7470;116,10851;4,81302;116,10851
1,7472;116,10862;4,81302;116,10862
