Part protocol
Network name;Part_OP10_MP-002_2020-08-25_16-11-21_0007_OK.csv
Protocol version;2.01.00

Index;Result information;Process values - curve related;Process values - EO related;Evaluation objects settings;Switch signal settings;Device information;Channel-X settings;Channel-Y settings;Cycle control settings;Evaluation settings;Trigger Y settings;Block settings;Measuring curve;Measuring points;Sequence;
Line;10;30;40;70;100;120;150;190;220;240;250;260;270;280;570;



Result information
Date;2020/08/25
Time;16:11:21
Cycle number;7
Total result;OK
Triggered switch signals
Part serial number;0007
Measuring program name;D57-Right
Measuring program number;2
Zero X offset;0,00;mm
Tara Y offset;0,0;kN









Process values - curve related
Block X;116,14;mm;XMIN-X;-0,04;mm
Block Y;4,8;kN;XMIN-Y;0,0;kN
Ref X;-;mm;XMAX-X;116,14;mm
Peak-peak X;116,18;mm;XMAX-Y;4,8;kN
Peak-peak Y;4,9;kN;YMIN-X;-0,04;mm
;;;YMIN-Y;0,0;kN
;;;YMAX-X;116,14;mm
;;;YMAX-Y;4,8;kN

Process values - EO related;Result;Entry;Exit;XMIN-X;XMIN-Y;XMAX-X;XMAX-Y;YMIN-Y;YMIN-X;YMAX-Y;YMAX-X
;;;;mm;kN;mm;kN;kN;mm;kN;mm
EO-01;OK;0,7;0,7;;;;;0,7;115,00;0,7;115,18;;;;;;
EO-02;OK;;116,12;116,10;2,3;116,12;3,2;2,3;116,10;;;;;;;;
EO-03;None;
EO-04;None;
























Evaluation objects settings;Reaction;X reference;Y-Reference;XMin;XMax;YMin;YMax;Entry;Exit;Curve part;Catch zone X;Catch zone Y
EO-01;UNI-BOX;ABSOLUTE;-;115,00;115,50;0,4;2,0;LEFT;RIGHT;ANY;+50%;+50%
EO-02;UNI-BOX;ABSOLUTE;-;115,40;117,10;2,3;3,3;ANY;ABOVE;ANY;+50%;+50%
EO-03;OFF
EO-04;OFF

























Switch signal settings;Channel;Threshold at;;Trigger from;Reference;Latch until
Type S1;OFF
Type S2;OFF

















Device information
Device type;maXYmos BL
Device type number;5867B1011
Device serial number;5182443
Firmware version;2.3.2 (r22473-BL_v2.3.x)
-
-
-
-
-
IP Address;10.0.0.18
Network name;OP10
Profibus address;10
-
-
-
Station name;OP10
Company name;
Comment;











Channel-X settings
Use the settings from global setup;True
Sensor-X type;Â±10V
Unit;mm
Used range from;0,00;mm
Used range to;200,00;mm
Decimal places;XXXX.XX
Scaling by;Teach-In
Point 1;0,00;mm;-0,350;%
Point 2;200,00;mm;10,000;%
Invert signal;FALSE
Filter;20 Hz
Test point;0,00;mm
Tolerance;2,00;mm
Enable sensor test by dig-input;FALSE
Zoom from;100,00;mm
Zoom to;120,00;mm























Channel-Y settings
Use the settings from global setup;True
Sensor-Y type;Strain Gage
Unit;kN
Used range from;0,0;kN
Used range to;20,0;kN
Decimal places;XXXXX.X
Scaling by;Teach-In
Point 1;0,0;kN;-0,01562;%
Point 2;20,0;kN;2,00000;%
Invert signal;FALSE
Filter;1 Hz
Piezo reset;-
Test point;0,0;kN
Tolerance;0,1;kN
Enable sensor test by dig-input;FALSE
Zoom from;0,0;kN
Zoom to;5,0;kN












Cycle control settings
Use the settings from global setup;True
Measuring function;Y (X)
Delta-X;Automatic
START condition;Dig-Input
STOP condition;Dig-Input
Cycle time out;20,00;s
Turning point RIGHT;YMAX
Turning point LEFT;NONE
Cut curve at;NONE










Evaluation settings
Capture only first NOK-EO for statistics;False
Hysteresis-X;0,0;%
Hysteresis-Y;100,0;%






Trigger Y settings
Threshold;1,8;kN
Value X at TRIGGER Y;0,00;mm
Approach from;BELOW






Block settings
Value X at block;XMAX
Block at;0,00;mm







Measuring curve
Number of measuring points;286
Ref. Graph on;ABSOLUTE
Curve segments;0;285;284;286;


Time;X(ABSOLUTE);Y;X (ABSOLUTE)


s;mm;kN;mm
0,0000;-0,04025;-0,04541;-0,04025
0,1089;0,36260;-0,04538;0,36260
0,1123;0,78605;-0,04537;0,78605
0,1146;1,18832;-0,04536;1,18832
0,1164;1,60152;-0,04536;1,60152
0,1181;2,03429;-0,04535;2,03429
0,1196;2,46367;-0,04534;2,46367
0,1210;2,86803;-0,04534;2,86803
0,1223;3,29125;-0,04533;3,29125
0,1236;3,72529;-0,04532;3,72529
0,1249;4,16317;-0,04532;4,16317
0,1262;4,59954;-0,04531;4,59954
0,1275;5,03068;-0,04530;5,03068
0,1288;5,45378;-0,04528;5,45378
0,1302;5,86675;-0,04528;5,86675
0,1315;6,26809;-0,04526;6,26809
0,1330;6,71202;-0,04524;6,71202
0,1345;7,14152;-0,04521;7,14152
0,1360;7,55904;-0,04521;7,55904
0,1375;7,96701;-0,04519;7,96701
0,1390;8,36741;-0,04516;8,36741
0,1407;8,81123;-0,04513;8,81123
0,1424;9,25051;-0,04509;9,25051
0,1440;9,68769;-0,04506;9,68769
0,1457;10,12476;-0,04501;10,12476
0,1474;10,56276;-0,04501;10,56276
0,1491;11,00227;-0,04496;11,00227
0,1508;11,44330;-0,04492;11,44330
0,1525;11,88549;-0,04486;11,88549
0,1542;12,32814;-0,04481;12,32814
0,1559;12,77080;-0,04474;12,77080
0,1576;13,21217;-0,04468;13,21217
0,1593;13,65122;-0,04460;13,65122
0,1609;14,08701;-0,04453;14,08701
0,1626;14,51849;-0,04445;14,51849
0,1643;14,94497;-0,04445;14,94497
0,1660;15,36609;-0,04436;15,36609
0,1677;15,78151;-0,04428;15,78151
0,1694;16,19134;-0,04419;16,19134
0,1711;16,59558;-0,04408;16,59558
0,1730;17,03812;-0,04398;17,03812
0,1748;17,47391;-0,04387;17,47391
0,1767;17,90341;-0,04376;17,90341
0,1786;18,32721;-0,04364;18,32721
0,1805;18,74600;-0,04351;18,74600
0,1823;19,16038;-0,04338;19,16038
0,1842;19,57079;-0,04325;19,57079
0,1861;19,97759;-0,04310;19,97759
0,1880;20,38126;-0,04295;20,38126
0,1899;20,78213;-0,04281;20,78213
0,1919;21,22036;-0,04265;21,22036
0,1940;21,65603;-0,04248;21,65603
0,1960;22,08984;-0,04232;22,08984
0,1981;22,52213;-0,04214;22,52213
0,2002;22,95315;-0,04177;22,95315
0,2022;23,38335;-0,04158;23,38335
0,2043;23,81285;-0,04138;23,81285
0,2064;24,24212;-0,04118;24,24212
0,2084;24,67128;-0,04096;24,67128
0,2105;25,10066;-0,04074;25,10066
0,2126;25,53005;-0,04052;25,53005
0,2146;25,95967;-0,04029;25,95967
0,2167;26,38917;-0,04006;26,38917
0,2188;26,81890;-0,03982;26,81890
0,2208;27,24911;-0,03931;27,24911
0,2229;27,67989;-0,03905;27,67989
0,2250;28,11114;-0,03878;28,11114
0,2270;28,54308;-0,03851;28,54308
0,2291;28,97515;-0,03823;28,97515
0,2312;29,40744;-0,03795;29,40744
0,2332;29,83974;-0,03765;29,83974
0,2353;30,27238;-0,03735;30,27238
0,2374;30,70549;-0,03705;30,70549
0,2394;31,13954;-0,03674;31,13954
0,2415;31,57509;-0,03610;31,57509
0,2435;32,01286;-0,03577;32,01286
0,2454;32,41303;-0,03544;32,41303
0,2473;32,81588;-0,03510;32,81588
0,2492;33,22175;-0,03474;33,22175
0,2511;33,63077;-0,03439;33,63077
0,2529;34,04328;-0,03403;34,04328
0,2548;34,45939;-0,03366;34,45939
0,2567;34,87888;-0,03329;34,87888
0,2586;35,30175;-0,03291;35,30175
0,2604;35,72788;-0,03253;35,72788
0,2623;36,15692;-0,03214;36,15692
0,2642;36,58875;-0,03174;36,58875
0,2661;37,02302;-0,03134;37,02302
0,2680;37,45927;-0,03093;37,45927
0,2698;37,89739;-0,03051;37,89739
0,2717;38,33702;-0,03010;38,33702
0,2736;38,77816;-0,02967;38,77816
0,2755;39,22035;-0,02924;39,22035
0,2773;39,66359;-0,02880;39,66359
0,2792;40,10729;-0,02836;40,10729
0,2811;40,55134;-0,02791;40,55134
0,2830;40,99516;-0,02746;40,99516
0,2848;41,43863;-0,02700;41,43863
0,2867;41,88140;-0,02653;41,88140
0,2886;42,32301;-0,02607;42,32301
0,2905;42,76334;-0,02559;42,76334
0,2924;43,20204;-0,02511;43,20204
0,2942;43,63887;-0,02463;43,63887
0,2961;44,07338;-0,02414;44,07338
0,2980;44,50556;-0,02364;44,50556
0,2999;44,93495;-0,02314;44,93495
0,3017;45,36154;-0,02264;45,36154
0,3036;45,78522;-0,02214;45,78522
0,3055;46,20564;-0,02162;46,20564
0,3074;46,62293;-0,02110;46,62293
0,3093;47,03683;-0,02058;47,03683
0,3111;47,44689;-0,02005;47,44689
0,3130;47,85300;-0,01953;47,85300
0,3149;48,25515;-0,01899;48,25515
0,3170;48,69268;-0,01845;48,69268
0,3190;49,12521;-0,01791;49,12521
0,3211;49,55285;-0,01737;49,55285
0,3231;49,97560;-0,01682;49,97560
0,3252;50,39358;-0,01628;50,39358
0,3273;50,80679;-0,01572;50,80679
0,3293;51,21534;-0,01516;51,21534
0,3314;51,61982;-0,01460;51,61982
0,3335;52,02011;-0,01347;52,02011
0,3357;52,45252;-0,01290;52,45252
0,3380;52,88086;-0,01233;52,88086
0,3402;53,30547;-0,01176;53,30547
0,3425;53,72648;-0,01118;53,72648
0,3447;54,14422;-0,01002;54,14422
0,3470;54,55894;-0,00944;54,55894
0,3492;54,97110;-0,00885;54,97110
0,3515;55,38070;-0,00826;55,38070
0,3538;55,78797;-0,00768;55,78797
0,3560;56,19280;-0,00649;56,19280
0,3583;56,59553;-0,00590;56,59553
0,3605;56,99640;-0,00531;56,99640
0,3629;57,42904;-0,00470;57,42904
0,3654;57,86076;-0,00351;57,86076
0,3678;58,29212;-0,00292;58,29212
0,3703;58,72395;-0,00232;58,72395
0,3727;59,15648;-0,00171;59,15648
0,3750;59,55689;-0,00051;59,55689
0,3772;59,95834;0,00009;59,95834
0,3795;60,36107;0,00070;60,36107
0,3817;60,76531;0,00130;60,76531
0,3840;61,17130;0,00190;61,17130
0,3862;61,57892;0,00312;61,57892
0,3885;61,98817;0,00372;61,98817
0,3907;62,39870;0,00432;62,39870
0,3930;62,81051;0,00493;62,81051
0,3952;63,22337;0,00553;63,22337
0,3975;63,63716;0,00675;63,63716
0,3997;64,05176;0,00735;64,05176
0,4020;64,46706;0,00795;64,46706
0,4043;64,88260;0,00855;64,88260
0,4065;65,29837;0,00916;65,29837
0,4088;65,71402;0,01037;65,71402
0,4110;66,12944;0,01097;66,12944
0,4133;66,54451;0,01156;66,54451
0,4155;66,95911;0,01216;66,95911
0,4178;67,37325;0,01276;67,37325
0,4200;67,78680;0,01396;67,78680
0,4223;68,19978;0,01455;68,19978
0,4245;68,61194;0,01514;68,61194
0,4268;69,02317;0,01574;69,02317
0,4290;69,43323;0,01633;69,43323
0,4313;69,84190;0,01751;69,84190
0,4335;70,24905;0,01810;70,24905
0,4358;70,65434;0,01869;70,65434
0,4380;71,05789;0,01927;71,05789
0,4403;71,45946;0,01985;71,45946
0,4427;71,89210;0,02102;71,89210
0,4452;72,32207;0,02159;72,32207
0,4476;72,74959;0,02218;72,74959
0,4501;73,17421;0,02332;73,17421
0,4525;73,59614;0,02389;73,59614
0,4549;74,01517;0,02446;74,01517
0,4574;74,43140;0,02559;74,43140
0,4598;74,84484;0,02616;74,84484
0,4623;75,25526;0,02671;75,25526
0,4647;75,66311;0,02728;75,66311
0,4671;76,06864;0,02838;76,06864
0,4696;76,47218;0,02893;76,47218
0,4720;76,87410;0,02948;76,87410
0,4745;77,27473;0,03057;77,27473
0,4771;77,70459;0,03112;77,70459
0,4797;78,13281;0,03166;78,13281
0,4824;78,55905;0,03273;78,55905
0,4850;78,98355;0,03326;78,98355
0,4876;79,40642;0,03431;79,40642
0,4902;79,82765;0,03484;79,82765
0,4929;80,24738;0,03536;80,24738
0,4955;80,66582;0,03639;80,66582
0,4981;81,08311;0,03690;81,08311
0,5008;81,49934;0,03792;81,49934
0,5034;81,91452;0,03842;81,91452
0,5060;82,32866;0,03892;82,32866
0,5086;82,74187;0,03992;82,74187
0,5113;83,15438;0,04041;83,15438
0,5139;83,56665;0,04139;83,56665
0,5165;83,97881;0,04188;83,97881
0,5191;84,39086;0,04236;84,39086
0,5218;84,80278;0,04331;84,80278
0,5244;85,21483;0,04378;85,21483
0,5270;85,62710;0,04472;85,62710
0,5297;86,03973;0,04518;86,03973
0,5323;86,45270;0,04564;86,45270
0,5349;86,86591;0,04656;86,86591
0,5375;87,27912;0,04701;87,27912
0,5402;87,69232;0,04791;87,69232
0,5428;88,10518;0,04836;88,10518
0,5454;88,51780;0,04879;88,51780
0,5481;88,92985;0,04967;88,92985
0,5507;89,34108;0,05010;89,34108
0,5533;89,75137;0,05096;89,75137
0,5559;90,16062;0,05138;90,16062
0,5586;90,56871;0,05180;90,56871
0,5612;90,97575;0,05263;90,97575
0,5638;91,38209;0,05305;91,38209
0,5665;91,78808;0,05386;91,78808
0,5691;92,19372;0,05427;92,19372
0,5717;92,59854;0,05467;92,59854
0,5743;93,00232;0,05546;93,00232
0,5770;93,40470;0,05585;93,40470
0,5796;93,80511;0,05664;93,80511
0,5824;94,23170;0,05702;94,23170
0,5852;94,65585;0,05778;94,65585
0,5881;95,07779;0,05816;95,07779
0,5909;95,49774;0,05891;95,49774
0,5937;95,91572;0,05928;95,91572
0,5965;96,33184;0,06000;96,33184
0,5993;96,74586;0,06036;96,74586
0,6021;97,15825;0,06108;97,15825
0,6049;97,56937;0,06144;97,56937
0,6078;97,97955;0,06213;97,97955
0,6106;98,38880;0,06247;98,38880
0,6134;98,79711;0,06316;98,79711
0,6162;99,20427;0,06350;99,20427
0,6190;99,61003;0,06417;99,61003
0,6218;100,01462;0,06450;100,01462
0,6247;100,41817;0,06515;100,41817
0,6275;100,82078;0,06547;100,82078
0,6303;101,22258;0,06612;101,22258
0,6331;101,62392;0,06643;101,62392
0,6359;102,02467;0,06705;102,02467
0,6387;102,42472;0,06737;102,42472
0,6417;102,85003;0,06798;102,85003
0,6447;103,27418;0,06829;103,27418
0,6478;103,69810;0,06888;103,69810
0,6508;104,12248;0,06947;104,12248
0,6538;104,54767;0,06977;104,54767
0,6568;104,97415;0,07034;104,97415
0,6596;105,37467;0,07063;105,37467
0,6624;105,77519;0,07119;105,77519
0,6654;106,20178;0,07147;106,20178
0,6684;106,62686;0,07203;106,62686
0,6714;107,04810;0,07257;107,04810
0,6744;107,46154;0,07284;107,46154
0,6774;107,86334;0,07338;107,86334
0,6806;108,27236;0,07365;108,27236
0,6840;108,67753;0,07417;108,67753
0,6877;109,08248;0,07469;109,08248
0,6922;109,48812;0,07547;109,48812
0,6986;109,88899;0,07623;109,88899
0,7570;110,29113;0,08494;110,29113
0,7711;110,69806;0,08795;110,69806
0,7777;111,10463;0,08922;111,10463
0,7827;111,51446;0,09058;111,51446
0,7871;111,91673;0,09153;111,91673
0,7912;112,32027;0,09253;112,32027
0,7959;112,73045;0,09412;112,73045
0,8034;113,13272;0,09641;113,13272
1,2829;113,53964;0,66670;113,53964
1,2883;113,95226;0,67287;113,95226
1,2926;114,36058;0,67693;114,36058
1,2968;114,76250;0,68293;114,76250
1,3013;115,17710;0,68688;115,17710
1,3069;115,58344;0,69274;115,58344
1,3591;115,98361;0,74996;115,98361
1,5069;116,06695;1,35468;116,06695
1,5688;116,08872;1,96444;116,08872
1,6176;116,10397;2,58257;116,10397
1,6608;116,11537;3,19999;116,11537
1,7021;116,12585;3,82559;116,12585
1,7415;116,13144;4,43321;116,13144
1,7659;116,13889;4,80682;116,13889
1,7672;116,13924;4,80682;116,13924
