Part protocol
Network name;Part_OP10_MP-002_2020-08-26_09-31-31_0010_OK.csv
Protocol version;2.01.00

Index;Result information;Process values - curve related;Process values - EO related;Evaluation objects settings;Switch signal settings;Device information;Channel-X settings;Channel-Y settings;Cycle control settings;Evaluation settings;Trigger Y settings;Block settings;Measuring curve;Measuring points;Sequence;
Line;10;30;40;70;100;120;150;190;220;240;250;260;270;280;570;



Result information
Date;2020/08/26
Time;09:31:31
Cycle number;10
Total result;OK
Triggered switch signals
Part serial number;0010
Measuring program name;D57-Right
Measuring program number;2
Zero X offset;0,00;mm
Tara Y offset;0,0;kN









Process values - curve related
Block X;116,14;mm;XMIN-X;0,01;mm
Block Y;4,9;kN;XMIN-Y;0,0;kN
Ref X;-;mm;XMAX-X;116,14;mm
Peak-peak X;116,13;mm;XMAX-Y;4,9;kN
Peak-peak Y;4,9;kN;YMIN-X;0,42;mm
;;;YMIN-Y;0,0;kN
;;;YMAX-X;116,14;mm
;;;YMAX-Y;4,9;kN

Process values - EO related;Result;Entry;Exit;XMIN-X;XMIN-Y;XMAX-X;XMAX-Y;YMIN-Y;YMIN-X;YMAX-Y;YMAX-X
;;;;mm;kN;mm;kN;kN;mm;kN;mm
EO-01;OK;0,7;0,7;;;;;0,7;115,00;0,7;115,47;;;;;;
EO-02;OK;;116,12;116,10;2,3;116,11;3,1;2,3;116,10;;;;;;;;
EO-03;None;
EO-04;None;
























Evaluation objects settings;Reaction;X reference;Y-Reference;XMin;XMax;YMin;YMax;Entry;Exit;Curve part;Catch zone X;Catch zone Y
EO-01;UNI-BOX;ABSOLUTE;-;115,00;115,50;0,4;2,0;LEFT;RIGHT;ANY;+50%;+50%
EO-02;UNI-BOX;ABSOLUTE;-;115,40;117,10;2,3;3,3;ANY;ABOVE;ANY;+50%;+50%
EO-03;OFF
EO-04;OFF

























Switch signal settings;Channel;Threshold at;;Trigger from;Reference;Latch until
Type S1;OFF
Type S2;OFF

















Device information
Device type;maXYmos BL
Device type number;5867B1011
Device serial number;5182443
Firmware version;2.3.2 (r22473-BL_v2.3.x)
-
-
-
-
-
IP Address;10.0.0.18
Network name;OP10
Profibus address;10
-
-
-
Station name;OP10
Company name;
Comment;











Channel-X settings
Use the settings from global setup;True
Sensor-X type;Â±10V
Unit;mm
Used range from;0,00;mm
Used range to;200,00;mm
Decimal places;XXXX.XX
Scaling by;Teach-In
Point 1;0,00;mm;-0,350;%
Point 2;200,00;mm;10,000;%
Invert signal;FALSE
Filter;20 Hz
Test point;0,00;mm
Tolerance;2,00;mm
Enable sensor test by dig-input;FALSE
Zoom from;100,00;mm
Zoom to;120,00;mm























Channel-Y settings
Use the settings from global setup;True
Sensor-Y type;Strain Gage
Unit;kN
Used range from;0,0;kN
Used range to;20,0;kN
Decimal places;XXXXX.X
Scaling by;Teach-In
Point 1;0,0;kN;-0,01562;%
Point 2;20,0;kN;2,00000;%
Invert signal;FALSE
Filter;1 Hz
Piezo reset;-
Test point;0,0;kN
Tolerance;0,1;kN
Enable sensor test by dig-input;FALSE
Zoom from;0,0;kN
Zoom to;5,0;kN












Cycle control settings
Use the settings from global setup;True
Measuring function;Y (X)
Delta-X;Automatic
START condition;Dig-Input
STOP condition;Dig-Input
Cycle time out;20,00;s
Turning point RIGHT;YMAX
Turning point LEFT;NONE
Cut curve at;NONE










Evaluation settings
Capture only first NOK-EO for statistics;False
Hysteresis-X;0,0;%
Hysteresis-Y;100,0;%






Trigger Y settings
Threshold;1,8;kN
Value X at TRIGGER Y;0,00;mm
Approach from;BELOW






Block settings
Value X at block;XMAX
Block at;0,00;mm







Measuring curve
Number of measuring points;286
Ref. Graph on;ABSOLUTE
Curve segments;0;285;284;286;


Time;X(ABSOLUTE);Y;X (ABSOLUTE)


s;mm;kN;mm
0,0000;0,01039;-0,03722;0,01039
0,1185;0,42499;-0,03739;0,42499
0,1217;0,85635;-0,03739;0,85635
0,1238;1,26083;-0,03738;1,26083
0,1255;1,67264;-0,03738;1,67264
0,1270;2,09993;-0,03738;2,09993
0,1283;2,51582;-0,03737;2,51582
0,1296;2,96278;-0,03736;2,96278
0,1307;3,36341;-0,03736;3,36341
0,1318;3,77441;-0,03735;3,77441
0,1330;4,19076;-0,03735;4,19076
0,1341;4,60897;-0,03734;4,60897
0,1352;5,02590;-0,03733;5,02590
0,1363;5,43899;-0,03733;5,43899
0,1375;5,84615;-0,03731;5,84615
0,1388;6,31197;-0,03731;6,31197
0,1401;6,76743;-0,03729;6,76743
0,1414;7,21311;-0,03726;7,21311
0,1427;7,65052;-0,03723;7,65052
0,1440;8,08131;-0,03723;8,08131
0,1454;8,50674;-0,03721;8,50674
0,1467;8,92797;-0,03717;8,92797
0,1480;9,34665;-0,03717;9,34665
0,1493;9,76405;-0,03713;9,76405
0,1506;10,18133;-0,03709;10,18133
0,1519;10,59954;-0,03709;10,59954
0,1532;11,01927;-0,03704;11,01927
0,1546;11,44085;-0,03698;11,44085
0,1559;11,86430;-0,03693;11,86430
0,1572;12,28950;-0,03693;12,28950
0,1585;12,71609;-0,03687;12,71609
0,1598;13,14385;-0,03680;13,14385
0,1611;13,57195;-0,03680;13,57195
0,1624;14,00006;-0,03673;14,00006
0,1638;14,42735;-0,03665;14,42735
0,1651;14,85325;-0,03665;14,85325
0,1664;15,27704;-0,03658;15,27704
0,1677;15,69793;-0,03648;15,69793
0,1690;16,11545;-0,03639;16,11545
0,1703;16,52900;-0,03639;16,52900
0,1716;16,93814;-0,03629;16,93814
0,1730;17,34261;-0,03619;17,34261
0,1745;17,79889;-0,03619;17,79889
0,1760;18,24876;-0,03608;18,24876
0,1775;18,69200;-0,03597;18,69200
0,1790;19,12883;-0,03584;19,12883
0,1805;19,55915;-0,03572;19,55915
0,1820;19,98318;-0,03572;19,98318
0,1835;20,40116;-0,03558;20,40116
0,1850;20,81320;-0,03544;20,81320
0,1865;21,21966;-0,03529;21,21966
0,1880;21,62064;-0,03514;21,62064
0,1897;22,06551;-0,03498;22,06551
0,1914;22,50386;-0,03498;22,50386
0,1930;22,93569;-0,03482;22,93569
0,1947;23,36112;-0,03464;23,36112
0,1964;23,78049;-0,03447;23,78049
0,1981;24,19370;-0,03429;24,19370
0,1998;24,60121;-0,03410;24,60121
0,2015;25,00301;-0,03390;25,00301
0,2034;25,44322;-0,03370;25,44322
0,2052;25,87691;-0,03349;25,87691
0,2071;26,30455;-0,03327;26,30455
0,2090;26,72625;-0,03305;26,72625
0,2109;27,14249;-0,03283;27,14249
0,2128;27,55395;-0,03260;27,55395
0,2146;27,96110;-0,03236;27,96110
0,2165;28,36453;-0,03211;28,36453
0,2184;28,76459;-0,03186;28,76459
0,2205;29,20107;-0,03160;29,20107
0,2225;29,63453;-0,03133;29,63453
0,2246;30,06520;-0,03106;30,06520
0,2266;30,49400;-0,03078;30,49400
0,2287;30,92153;-0,03049;30,92153
0,2308;31,34812;-0,03021;31,34812
0,2328;31,77413;-0,02961;31,77413
0,2349;32,19967;-0,02930;32,19967
0,2370;32,62487;-0,02899;32,62487
0,2390;33,05007;-0,02866;33,05007
0,2411;33,47538;-0,02834;33,47538
0,2432;33,90104;-0,02800;33,90104
0,2452;34,32740;-0,02766;34,32740
0,2473;34,75457;-0,02732;34,75457
0,2494;35,18280;-0,02697;35,18280
0,2514;35,61218;-0,02661;35,61218
0,2535;36,04296;-0,02588;36,04296
0,2556;36,47526;-0,02550;36,47526
0,2576;36,90907;-0,02512;36,90907
0,2597;37,34462;-0,02473;37,34462
0,2618;37,78204;-0,02434;37,78204
0,2638;38,22109;-0,02394;38,22109
0,2657;38,62149;-0,02353;38,62149
0,2676;39,02318;-0,02313;39,02318
0,2695;39,42614;-0,02271;39,42614
0,2713;39,83015;-0,02229;39,83015
0,2732;40,23533;-0,02187;40,23533
0,2751;40,64132;-0,02143;40,64132
0,2770;41,04812;-0,02100;41,04812
0,2788;41,45528;-0,02055;41,45528
0,2807;41,86266;-0,02011;41,86266
0,2826;42,27040;-0,01965;42,27040
0,2845;42,67825;-0,01919;42,67825
0,2864;43,08622;-0,01873;43,08622
0,2882;43,49419;-0,01827;43,49419
0,2901;43,90193;-0,01779;43,90193
0,2920;44,30932;-0,01731;44,30932
0,2939;44,71577;-0,01683;44,71577
0,2957;45,12141;-0,01634;45,12141
0,2976;45,52601;-0,01585;45,52601
0,2995;45,92944;-0,01535;45,92944
0,3014;46,33159;-0,01485;46,33159
0,3032;46,73234;-0,01435;46,73234
0,3053;47,17150;-0,01384;47,17150
0,3074;47,60869;-0,01332;47,60869
0,3094;48,04389;-0,01280;48,04389
0,3115;48,47700;-0,01229;48,47700
0,3136;48,90802;-0,01122;48,90802
0,3156;49,33705;-0,01069;49,33705
0,3177;49,76388;-0,01016;49,76388
0,3198;50,18838;-0,00961;50,18838
0,3218;50,61066;-0,00906;50,61066
0,3239;51,03085;-0,00852;51,03085
0,3260;51,44907;-0,00796;51,44907
0,3280;51,86565;-0,00741;51,86565
0,3301;52,28049;-0,00685;52,28049
0,3322;52,69369;-0,00629;52,69369
0,3342;53,10515;-0,00516;53,10515
0,3363;53,51475;-0,00458;53,51475
0,3384;53,92272;-0,00401;53,92272
0,3404;54,32906;-0,00344;54,32906
0,3425;54,73377;-0,00286;54,73377
0,3446;55,13697;-0,00228;55,13697
0,3466;55,53842;-0,00170;55,53842
0,3489;55,97467;-0,00111;55,97467
0,3511;56,40871;0,00007;56,40871
0,3534;56,84078;0,00066;56,84078
0,3556;57,27074;0,00126;57,27074
0,3579;57,69885;0,00185;57,69885
0,3601;58,12509;0,00245;58,12509
0,3624;58,54959;0,00364;58,54959
0,3646;58,97246;0,00425;58,97246
0,3669;59,39358;0,00485;59,39358
0,3691;59,81319;0,00545;59,81319
0,3714;60,23129;0,00606;60,23129
0,3737;60,64833;0,00727;60,64833
0,3759;61,06445;0,00788;61,06445
0,3782;61,47975;0,00850;61,47975
0,3804;61,89412;0,00910;61,89412
0,3827;62,30768;0,00971;62,30768
0,3849;62,72019;0,01093;62,72019
0,3872;63,13153;0,01155;63,13153
0,3894;63,54171;0,01216;63,54171
0,3917;63,95073;0,01277;63,95073
0,3939;64,35870;0,01338;64,35870
0,3962;64,76562;0,01461;64,76562
0,3984;65,17149;0,01523;65,17149
0,4007;65,57609;0,01584;65,57609
0,4029;65,97917;0,01645;65,97917
0,4052;66,38074;0,01706;66,38074
0,4074;66,78079;0,01828;66,78079
0,4099;67,21285;0,01889;67,21285
0,4123;67,64399;0,01950;67,64399
0,4148;68,07454;0,02011;68,07454
0,4172;68,50474;0,02133;68,50474
0,4196;68,93459;0,02194;68,93459
0,4221;69,36409;0,02254;69,36409
0,4245;69,79336;0,02375;69,79336
0,4270;70,22216;0,02435;70,22216
0,4294;70,65074;0,02495;70,65074
0,4319;71,07919;0,02616;71,07919
0,4343;71,50741;0,02675;71,50741
0,4367;71,93494;0,02735;71,93494
0,4392;72,36176;0,02794;72,36176
0,4416;72,78789;0,02913;72,78789
0,4441;73,21343;0,02972;73,21343
0,4465;73,63840;0,03031;73,63840
0,4489;74,06289;0,03148;74,06289
0,4514;74,48693;0,03206;74,48693
0,4538;74,91038;0,03265;74,91038
0,4563;75,33336;0,03380;75,33336
0,4587;75,75588;0,03439;75,75588
0,4611;76,17782;0,03496;76,17782
0,4636;76,59917;0,03553;76,59917
0,4660;77,02029;0,03667;77,02029
0,4685;77,44118;0,03724;77,44118
0,4709;77,86149;0,03780;77,86149
0,4733;78,28086;0,03892;78,28086
0,4758;78,69908;0,03948;78,69908
0,4782;79,11601;0,04003;79,11601
0,4807;79,53166;0,04114;79,53166
0,4831;79,94591;0,04168;79,94591
0,4855;80,35866;0,04223;80,35866
0,4880;80,76977;0,04276;80,76977
0,4904;81,17878;0,04385;81,17878
0,4929;81,58582;0,04438;81,58582
0,4953;81,99111;0,04491;81,99111
0,4977;82,39466;0,04597;82,39466
0,5002;82,79658;0,04649;82,79658
0,5026;83,19698;0,04701;83,19698
0,5053;83,62648;0,04805;83,62648
0,5079;84,05435;0,04857;84,05435
0,5105;84,48048;0,04908;84,48048
0,5131;84,90475;0,05010;84,90475
0,5158;85,32715;0,05060;85,32715
0,5184;85,74815;0,05160;85,74815
0,5210;86,16834;0,05209;86,16834
0,5237;86,58807;0,05258;86,58807
0,5263;87,00710;0,05355;87,00710
0,5289;87,42496;0,05404;87,42496
0,5315;87,84154;0,05499;87,84154
0,5342;88,25661;0,05546;88,25661
0,5368;88,67017;0,05594;88,67017
0,5394;89,08221;0,05687;89,08221
0,5421;89,49286;0,05733;89,49286
0,5447;89,90199;0,05825;89,90199
0,5473;90,30938;0,05870;90,30938
0,5499;90,71537;0,05916;90,71537
0,5526;91,11996;0,06005;91,11996
0,5552;91,52386;0,06049;91,52386
0,5578;91,92705;0,06136;91,92705
0,5605;92,32978;0,06180;92,32978
0,5631;92,73182;0,06223;92,73182
0,5657;93,13304;0,06308;93,13304
0,5683;93,53332;0,06350;93,53332
0,5712;93,96120;0,06434;93,96120
0,5740;94,38825;0,06475;94,38825
0,5768;94,81461;0,06556;94,81461
0,5796;95,23993;0,06597;95,23993
0,5824;95,66431;0,06678;95,66431
0,5852;96,08764;0,06717;96,08764
0,5881;96,51028;0,06795;96,51028
0,5909;96,93210;0,06834;96,93210
0,5937;97,35333;0,06911;97,35333
0,5965;97,77387;0,06949;97,77387
0,5993;98,19372;0,07024;98,19372
0,6021;98,61297;0,07061;98,61297
0,6049;99,03177;0,07135;99,03177
0,6078;99,45010;0,07171;99,45010
0,6106;99,86773;0,07243;99,86773
0,6134;100,28478;0,07278;100,28478
0,6162;100,70136;0,07349;100,70136
0,6190;101,11759;0,07384;101,11759
0,6218;101,53359;0,07452;101,53359
0,6247;101,94971;0,07487;101,94971
0,6275;102,36548;0,07553;102,36548
0,6303;102,78101;0,07587;102,78101
0,6331;103,19620;0,07653;103,19620
0,6359;103,61068;0,07686;103,61068
0,6387;104,02482;0,07750;104,02482
0,6416;104,43861;0,07782;104,43861
0,6444;104,85228;0,07845;104,85228
0,6472;105,26561;0,07876;105,26561
0,6500;105,67812;0,07938;105,67812
0,6528;106,08923;0,07968;106,08923
0,6556;106,49836;0,08029;106,49836
0,6585;106,90295;0,08059;106,90295
0,6615;107,32559;0,08118;107,32559
0,6645;107,73496;0,08148;107,73496
0,6677;108,15049;0,08205;108,15049
0,6710;108,56067;0,08262;108,56067
0,6748;108,96782;0,08319;108,96782
0,6793;109,37009;0,08375;109,37009
0,6861;109,77131;0,08486;109,77131
0,7463;110,17299;0,09448;110,17299
0,7581;110,58166;0,09682;110,58166
0,7647;110,98893;0,09853;110,98893
0,7700;111,39678;0,09992;111,39678
0,7747;111,80499;0,10089;111,80499
0,7792;112,21377;0,10243;112,21377
0,7841;112,61452;0,10351;112,61452
0,7921;113,01842;0,10581;113,01842
1,2677;113,42208;0,67187;113,42208
1,2726;113,83296;0,67605;113,83296
1,2765;114,24675;0,68018;114,24675
1,2804;114,65635;0,68629;114,65635
1,2848;115,07014;0,69032;115,07014
1,2898;115,47089;0,69631;115,47089
1,2992;115,87246;0,70621;115,87246
1,4757;116,06882;1,30738;116,06882
1,5376;116,09268;1,91996;116,09268
1,5846;116,10583;2,52377;116,10583
1,6259;116,11258;3,12457;116,11258
1,6653;116,12224;3,73278;116,12224
1,7047;116,13225;4,35256;116,13225
1,7385;116,13539;4,87897;116,13539
1,7398;116,13598;4,87897;116,13598
