Part protocol
Network name;Part_OP10_MP-001_2020-08-26_16-03-35_0035_OK.csv
Protocol version;2.01.00

Index;Result information;Process values - curve related;Process values - EO related;Evaluation objects settings;Switch signal settings;Device information;Channel-X settings;Channel-Y settings;Cycle control settings;Evaluation settings;Trigger Y settings;Block settings;Measuring curve;Measuring points;Sequence;
Line;10;30;40;70;100;120;150;190;220;240;250;260;270;280;600;



Result information
Date;2020/08/26
Time;16:03:35
Cycle number;35
Total result;OK
Triggered switch signals
Part serial number;0035
Measuring program name;D57-Left
Measuring program number;1
Zero X offset;0,00;mm
Tara Y offset;0,0;kN









Process values - curve related
Block X;126,36;mm;XMIN-X;-0,17;mm
Block Y;7,7;kN;XMIN-Y;0,0;kN
Ref X;-;mm;XMAX-X;126,36;mm
Peak-peak X;126,53;mm;XMAX-Y;7,7;kN
Peak-peak Y;7,7;kN;YMIN-X;0,25;mm
;;;YMIN-Y;0,0;kN
;;;YMAX-X;126,36;mm
;;;YMAX-Y;7,7;kN

Process values - EO related;Result;Entry;Exit;XMIN-X;XMIN-Y;XMAX-X;XMAX-Y;YMIN-Y;YMIN-X;YMAX-Y;YMAX-X
;;;;mm;kN;mm;kN;kN;mm;kN;mm
EO-01;OK;0,7;0,7;;;;;0,7;124,50;0,7;125,49;;;;;;
EO-02;OK;126,32;126,33;126,32;4,5;126,33;5,0;;;;;;;;;;
EO-03;None;
EO-04;None;
























Evaluation objects settings;Reaction;X reference;Y-Reference;XMin;XMax;YMin;YMax;Entry;Exit;Curve part;Catch zone X;Catch zone Y
EO-01;UNI-BOX;ABSOLUTE;-;124,50;125,70;0,5;3,0;LEFT;RIGHT;ANY;+50%;+50%
EO-02;UNI-BOX;ABSOLUTE;-;125,80;127,20;4,5;5,5;BELOW;ABOVE;ANY;+50%;+50%
EO-03;OFF
EO-04;OFF

























Switch signal settings;Channel;Threshold at;;Trigger from;Reference;Latch until
Type S1;OFF
Type S2;OFF

















Device information
Device type;maXYmos BL
Device type number;5867B1011
Device serial number;5182443
Firmware version;2.3.2 (r22473-BL_v2.3.x)
-
-
-
-
-
IP Address;10.0.0.18
Network name;OP10
Profibus address;10
-
-
-
Station name;OP10
Company name;
Comment;











Channel-X settings
Use the settings from global setup;True
Sensor-X type;Â±10V
Unit;mm
Used range from;0,00;mm
Used range to;200,00;mm
Decimal places;XXXX.XX
Scaling by;Teach-In
Point 1;0,00;mm;-0,350;%
Point 2;200,00;mm;10,000;%
Invert signal;FALSE
Filter;20 Hz
Test point;0,00;mm
Tolerance;2,00;mm
Enable sensor test by dig-input;FALSE
Zoom from;110,00;mm
Zoom to;133,11;mm























Channel-Y settings
Use the settings from global setup;True
Sensor-Y type;Strain Gage
Unit;kN
Used range from;0,0;kN
Used range to;20,0;kN
Decimal places;XXXXX.X
Scaling by;Teach-In
Point 1;0,0;kN;-0,01562;%
Point 2;20,0;kN;2,00000;%
Invert signal;FALSE
Filter;1 Hz
Piezo reset;-
Test point;0,0;kN
Tolerance;0,1;kN
Enable sensor test by dig-input;FALSE
Zoom from;0,0;kN
Zoom to;6,0;kN












Cycle control settings
Use the settings from global setup;True
Measuring function;Y (X)
Delta-X;Automatic
START condition;Dig-Input
STOP condition;Dig-Input
Cycle time out;20,00;s
Turning point RIGHT;YMAX
Turning point LEFT;NONE
Cut curve at;NONE










Evaluation settings
Capture only first NOK-EO for statistics;False
Hysteresis-X;0,0;%
Hysteresis-Y;100,0;%






Trigger Y settings
Threshold;1,9;kN
Value X at TRIGGER Y;0,00;mm
Approach from;BELOW






Block settings
Value X at block;XMAX
Block at;0,00;mm







Measuring curve
Number of measuring points;316
Ref. Graph on;ABSOLUTE
Curve segments;0;315;314;316;


Time;X(ABSOLUTE);Y;X (ABSOLUTE)


s;mm;kN;mm
0,0000;-0,16747;-0,03446;-0,16747
0,0938;0,24527;-0,03448;0,24527
0,0977;0,66092;-0,03448;0,66092
0,1005;1,07634;-0,03447;1,07634
0,1028;1,48257;-0,03447;1,48257
0,1049;1,91312;-0,03447;1,91312
0,1067;2,35286;-0,03447;2,35286
0,1084;2,78795;-0,03447;2,78795
0,1099;3,20570;-0,03446;3,20570
0,1114;3,65196;-0,03446;3,65196
0,1127;4,06610;-0,03445;4,06610
0,1141;4,50212;-0,03445;4,50212
0,1154;4,95921;-0,03445;4,95921
0,1165;5,36590;-0,03444;5,36590
0,1176;5,78271;-0,03444;5,78271
0,1187;6,20523;-0,03444;6,20523
0,1199;6,62833;-0,03443;6,62833
0,1210;7,04713;-0,03443;7,04713
0,1221;7,45742;-0,03442;7,45742
0,1234;7,92173;-0,03442;7,92173
0,1248;8,36822;-0,03441;8,36822
0,1261;8,79645;-0,03440;8,79645
0,1274;9,20663;-0,03439;9,20663
0,1289;9,65405;-0,03439;9,65405
0,1304;10,07983;-0,03438;10,07983
0,1319;10,48536;-0,03436;10,48536
0,1336;10,92149;-0,03435;10,92149
0,1353;11,34238;-0,03434;11,34238
0,1370;11,75443;-0,03432;11,75443
0,1386;12,16228;-0,03430;12,16228
0,1403;12,56804;-0,03430;12,56804
0,1420;12,97344;-0,03428;12,97344
0,1437;13,38025;-0,03425;13,38025
0,1454;13,79078;-0,03423;13,79078
0,1471;14,20655;-0,03421;14,20655
0,1488;14,62744;-0,03418;14,62744
0,1505;15,05240;-0,03414;15,05240
0,1522;15,48074;-0,03411;15,48074
0,1539;15,91222;-0,03408;15,91222
0,1555;16,34743;-0,03404;16,34743
0,1572;16,78636;-0,03404;16,78636
0,1589;17,22785;-0,03400;17,22785
0,1606;17,67120;-0,03396;17,67120
0,1623;18,11583;-0,03392;18,11583
0,1640;18,56210;-0,03387;18,56210
0,1657;19,01057;-0,03383;19,01057
0,1672;19,41063;-0,03377;19,41063
0,1687;19,81150;-0,03373;19,81150
0,1702;20,21271;-0,03373;20,21271
0,1717;20,61428;-0,03367;20,61428
0,1732;21,01655;-0,03361;21,01655
0,1747;21,42009;-0,03355;21,42009
0,1762;21,82504;-0,03349;21,82504
0,1777;22,23079;-0,03349;22,23079
0,1792;22,63655;-0,03343;22,63655
0,1807;23,04196;-0,03336;23,04196
0,1822;23,44714;-0,03329;23,44714
0,1837;23,85243;-0,03322;23,85243
0,1852;24,25807;-0,03322;24,25807
0,1867;24,66406;-0,03314;24,66406
0,1882;25,06993;-0,03307;25,06993
0,1897;25,47511;-0,03299;25,47511
0,1912;25,87959;-0,03291;25,87959
0,1927;26,28371;-0,03291;26,28371
0,1942;26,68761;-0,03283;26,68761
0,1957;27,09174;-0,03273;27,09174
0,1972;27,49563;-0,03265;27,49563
0,1987;27,89883;-0,03256;27,89883
0,2002;28,30063;-0,03256;28,30063
0,2017;28,70092;-0,03247;28,70092
0,2034;29,14951;-0,03237;29,14951
0,2051;29,59647;-0,03227;29,59647
0,2068;30,04192;-0,03217;30,04192
0,2085;30,48504;-0,03207;30,48504
0,2102;30,92548;-0,03197;30,92548
0,2119;31,36325;-0,03186;31,36325
0,2136;31,79834;-0,03186;31,79834
0,2152;32,23110;-0,03175;32,23110
0,2169;32,66153;-0,03164;32,66153
0,2186;33,08964;-0,03152;33,08964
0,2203;33,51530;-0,03141;33,51530
0,2220;33,93864;-0,03129;33,93864
0,2237;34,35987;-0,03117;34,35987
0,2254;34,77902;-0,03105;34,77902
0,2271;35,19595;-0,03093;35,19595
0,2288;35,61078;-0,03081;35,61078
0,2305;36,02341;-0,03081;36,02341
0,2321;36,43382;-0,03068;36,43382
0,2338;36,84203;-0,03055;36,84203
0,2355;37,24825;-0,03042;37,24825
0,2372;37,65238;-0,03029;37,65238
0,2389;38,05441;-0,03015;38,05441
0,2406;38,45446;-0,03002;38,45446
0,2425;38,89700;-0,02988;38,89700
0,2443;39,33733;-0,02974;39,33733
0,2462;39,77579;-0,02961;39,77579
0,2481;40,21228;-0,02947;40,21228
0,2500;40,64725;-0,02932;40,64725
0,2519;41,08071;-0,02918;41,08071
0,2537;41,51289;-0,02903;41,51289
0,2556;41,94344;-0,02888;41,94344
0,2575;42,37190;-0,02874;42,37190
0,2594;42,79837;-0,02859;42,79837
0,2612;43,22276;-0,02844;43,22276
0,2631;43,64504;-0,02829;43,64504
0,2650;44,06523;-0,02813;44,06523
0,2669;44,48333;-0,02799;44,48333
0,2688;44,89979;-0,02783;44,89979
0,2706;45,31463;-0,02767;45,31463
0,2725;45,72819;-0,02751;45,72819
0,2744;46,14070;-0,02736;46,14070
0,2763;46,55216;-0,02720;46,55216
0,2781;46,96280;-0,02704;46,96280
0,2800;47,37240;-0,02688;47,37240
0,2819;47,78049;-0,02673;47,78049
0,2838;48,18718;-0,02656;48,18718
0,2856;48,59212;-0,02640;48,59212
0,2875;48,99566;-0,02625;48,99566
0,2894;49,39793;-0,02608;49,39793
0,2913;49,79892;-0,02591;49,79892
0,2932;50,19909;-0,02576;50,19909
0,2952;50,63837;-0,02559;50,63837
0,2973;51,07671;-0,02542;51,07671
0,2994;51,51402;-0,02526;51,51402
0,3014;51,95015;-0,02509;51,95015
0,3035;52,38478;-0,02492;52,38478
0,3055;52,81812;-0,02476;52,81812
0,3076;53,24995;-0,02442;53,24995
0,3097;53,68050;-0,02426;53,68050
0,3117;54,11000;-0,02409;54,11000
0,3138;54,53869;-0,02392;54,53869
0,3159;54,96668;-0,02376;54,96668
0,3179;55,39397;-0,02358;55,39397
0,3200;55,82021;-0,02341;55,82021
0,3221;56,24529;-0,02325;56,24529
0,3241;56,66863;-0,02308;56,66863
0,3262;57,09056;-0,02290;57,09056
0,3283;57,51110;-0,02257;57,51110
0,3303;57,93060;-0,02239;57,93060
0,3324;58,34927;-0,02223;58,34927
0,3345;58,76725;-0,02205;58,76725
0,3365;59,18442;-0,02189;59,18442
0,3386;59,60018;-0,02172;59,60018
0,3407;60,01444;-0,02154;60,01444
0,3427;60,42648;-0,02138;60,42648
0,3448;60,83631;-0,02121;60,83631
0,3469;61,24428;-0,02103;61,24428
0,3489;61,65086;-0,02069;61,65086
0,3510;62,05626;-0,02052;62,05626
0,3530;62,46109;-0,02036;62,46109
0,3551;62,86522;-0,02018;62,86522
0,3572;63,26876;-0,02002;63,26876
0,3592;63,67138;-0,01984;63,67138
0,3613;64,07306;-0,01967;64,07306
0,3634;64,47347;-0,01951;64,47347
0,3656;64,90879;-0,01934;64,90879
0,3679;65,34248;-0,01900;65,34248
0,3701;65,77454;-0,01883;65,77454
0,3724;66,20533;-0,01866;66,20533
0,3746;66,63471;-0,01849;66,63471
0,3769;67,06294;-0,01832;67,06294
0,3791;67,49034;-0,01799;67,49034
0,3814;67,91670;-0,01782;67,91670
0,3836;68,34190;-0,01765;68,34190
0,3859;68,76593;-0,01748;68,76593
0,3882;69,18856;-0,01731;69,18856
0,3904;69,61004;-0,01698;69,61004
0,3927;70,03046;-0,01681;70,03046
0,3949;70,45007;-0,01665;70,45007
0,3972;70,86898;-0,01648;70,86898
0,3994;71,28719;-0,01631;71,28719
0,4017;71,70436;-0,01599;71,70436
0,4039;72,12036;-0,01582;72,12036
0,4062;72,53519;-0,01566;72,53519
0,4084;72,94921;-0,01549;72,94921
0,4107;73,36230;-0,01532;73,36230
0,4129;73,77505;-0,01500;73,77505
0,4152;74,18755;-0,01483;74,18755
0,4174;74,59971;-0,01467;74,59971
0,4197;75,01129;-0,01451;75,01129
0,4219;75,42217;-0,01434;75,42217
0,4242;75,83189;-0,01402;75,83189
0,4265;76,24044;-0,01385;76,24044
0,4287;76,64759;-0,01369;76,64759
0,4310;77,05346;-0,01353;77,05346
0,4332;77,45806;-0,01337;77,45806
0,4355;77,86149;-0,01305;77,86149
0,4377;78,26375;-0,01289;78,26375
0,4400;78,66497;-0,01272;78,66497
0,4422;79,06526;-0,01256;79,06526
0,4447;79,49814;-0,01224;79,49814
0,4471;79,93032;-0,01208;79,93032
0,4495;80,36156;-0,01193;80,36156
0,4520;80,79130;-0,01176;80,79130
0,4544;81,21941;-0,01144;81,21941
0,4569;81,64542;-0,01129;81,64542
0,4593;82,06933;-0,01113;82,06933
0,4617;82,49115;-0,01081;82,49115
0,4642;82,91111;-0,01066;82,91111
0,4666;83,32932;-0,01050;83,32932
0,4691;83,74556;-0,01019;83,74556
0,4715;84,15993;-0,01003;84,15993
0,4740;84,57278;-0,00987;84,57278
0,4764;84,98413;-0,00971;84,98413
0,4788;85,39419;-0,00940;85,39419
0,4813;85,80309;-0,00924;85,80309
0,4837;86,21083;-0,00908;86,21083
0,4862;86,61729;-0,00878;86,61729
0,4886;87,02211;-0,00862;87,02211
0,4910;87,42531;-0,00847;87,42531
0,4935;87,82711;-0,00816;87,82711
0,4959;88,22740;-0,00801;88,22740
0,4985;88,65690;-0,00785;88,65690
0,5012;89,08465;-0,00755;89,08465
0,5038;89,51043;-0,00739;89,51043
0,5064;89,93435;-0,00724;89,93435
0,5091;90,35675;-0,00694;90,35675
0,5117;90,77799;-0,00678;90,77799
0,5143;91,19876;-0,00647;91,19876
0,5169;91,61907;-0,00632;91,61907
0,5196;92,03903;-0,00618;92,03903
0,5222;92,45852;-0,00587;92,45852
0,5248;92,87696;-0,00572;92,87696
0,5275;93,29436;-0,00542;93,29436
0,5301;93,71059;-0,00527;93,71059
0,5327;94,12566;-0,00512;94,12566
0,5353;94,54003;-0,00482;94,54003
0,5380;94,95359;-0,00467;94,95359
0,5406;95,36622;-0,00437;95,36622
0,5432;95,77791;-0,00421;95,77791
0,5459;96,18809;-0,00407;96,18809
0,5485;96,59699;-0,00377;96,59699
0,5511;97,00484;-0,00362;97,00484
0,5537;97,41176;-0,00333;97,41176
0,5564;97,81799;-0,00318;97,81799
0,5590;98,22386;-0,00303;98,22386
0,5616;98,62939;-0,00273;98,62939
0,5643;99,03433;-0,00259;99,03433
0,5669;99,43857;-0,00229;99,43857
0,5695;99,84165;-0,00214;99,84165
0,5721;100,24357;-0,00199;100,24357
0,5748;100,64409;-0,00170;100,64409
0,5776;101,07208;-0,00155;101,07208
0,5804;101,49925;-0,00125;101,49925
0,5832;101,92585;-0,00110;101,92585
0,5860;102,35186;-0,00082;102,35186
0,5888;102,77705;-0,00067;102,77705
0,5917;103,20085;-0,00037;103,20085
0,5945;103,62093;-0,00022;103,62093
0,5973;104,03425;0,00006;104,03425
0,6001;104,43931;0,00021;104,43931
0,6031;104,86206;0,00051;104,86206
0,6061;105,27760;0,00080;105,27760
0,6091;105,68929;0,00094;105,68929
0,6121;106,09924;0,00124;106,09924
0,6151;106,50860;0,00139;106,50860
0,6181;106,91809;0,00168;106,91809
0,6211;107,32827;0,00198;107,32827
0,6241;107,73961;0,00212;107,73961
0,6271;108,15189;0,00241;108,15189
0,6302;108,56486;0,00256;108,56486
0,6332;108,97877;0,00286;108,97877
0,6362;109,39384;0,00316;109,39384
0,6392;109,81077;0,00331;109,81077
0,6422;110,22944;0,00361;110,22944
0,6452;110,64998;0,00377;110,64998
0,6482;111,07181;0,00406;111,07181
0,6512;111,49479;0,00437;111,49479
0,6542;111,91859;0,00452;111,91859
0,6572;112,34367;0,00483;112,34367
0,6600;112,74430;0,00499;112,74430
0,6628;113,14704;0,00529;113,14704
0,6656;113,54930;0,00545;113,54930
0,6686;113,97240;0,00576;113,97240
0,6716;114,38561;0,00592;114,38561
0,6746;114,78741;0,00625;114,78741
0,6778;115,20225;0,00656;115,20225
0,6810;115,60544;0,00673;115,60544
0,6844;116,02191;0,00705;116,02191
0,6878;116,43127;0,00738;116,43127
0,6912;116,83738;0,00772;116,83738
0,6945;117,24465;0,00805;117,24465
0,6979;117,65588;0,00822;117,65588
0,7015;118,07374;0,00856;118,07374
0,7056;118,47380;0,00909;118,47380
0,7129;118,87653;0,00963;118,87653
1,1496;119,28147;0,46093;119,28147
1,1558;119,68246;0,46991;119,68246
1,1596;120,10113;0,47586;120,10113
1,1626;120,52109;0,48177;120,52109
1,1652;120,92964;0,48472;120,92964
1,1678;121,35216;0,49058;121,35216
1,1705;121,76327;0,49348;121,76327
1,1735;122,18777;0,49929;122,18777
1,1770;122,59318;0,50504;122,59318
1,1829;122,99451;0,51360;122,99451
1,3295;123,39946;0,70059;123,39946
1,3347;123,81650;0,70654;123,81650
1,3385;124,23728;0,71047;124,23728
1,3417;124,65176;0,71244;124,65176
1,3449;125,07417;0,71633;125,07417
1,3484;125,49168;0,72021;125,49168
1,3533;125,89348;0,72601;125,89348
1,5411;126,26176;1,32739;126,26176
1,6049;126,28341;1,93874;126,28341
1,6537;126,29493;2,55391;126,29493
1,6969;126,30494;3,17292;126,30494
1,7382;126,31344;3,80170;126,31344
1,7776;126,32124;4,41206;126,32124
1,8170;126,32671;5,01398;126,32671
1,8583;126,33474;5,62082;126,33474
1,9034;126,34335;6,24346;126,34335
1,9522;126,34650;6,86430;126,34650
2,0048;126,35453;7,46863;126,35453
2,0273;126,35744;7,70793;126,35744
2,0275;126,35755;7,70793;126,35755
