Part protocol
Network name;Part_OP10_MP-002_2020-08-25_14-24-10_0003_OK.csv
Protocol version;2.01.00

Index;Result information;Process values - curve related;Process values - EO related;Evaluation objects settings;Switch signal settings;Device information;Channel-X settings;Channel-Y settings;Cycle control settings;Evaluation settings;Trigger Y settings;Block settings;Measuring curve;Measuring points;Sequence;
Line;10;30;40;70;100;120;150;190;220;240;250;260;270;280;570;



Result information
Date;2020/08/25
Time;14:24:10
Cycle number;3
Total result;OK
Triggered switch signals
Part serial number;0003
Measuring program name;D57-Right
Measuring program number;2
Zero X offset;0,00;mm
Tara Y offset;0,0;kN









Process values - curve related
Block X;116,17;mm;XMIN-X;0,11;mm
Block Y;4,8;kN;XMIN-Y;0,0;kN
Ref X;-;mm;XMAX-X;116,17;mm
Peak-peak X;116,05;mm;XMAX-Y;4,8;kN
Peak-peak Y;4,9;kN;YMIN-X;0,53;mm
;;;YMIN-Y;0,0;kN
;;;YMAX-X;116,17;mm
;;;YMAX-Y;4,8;kN

Process values - EO related;Result;Entry;Exit;XMIN-X;XMIN-Y;XMAX-X;XMAX-Y;YMIN-Y;YMIN-X;YMAX-Y;YMAX-X
;;;;mm;kN;mm;kN;kN;mm;kN;mm
EO-01;OK;0,7;0,7;;;;;0,7;115,00;0,7;115,43;;;;;;
EO-02;OK;;116,15;116,13;2,3;116,14;3,1;2,3;116,13;;;;;;;;
EO-03;None;
EO-04;None;
























Evaluation objects settings;Reaction;X reference;Y-Reference;XMin;XMax;YMin;YMax;Entry;Exit;Curve part;Catch zone X;Catch zone Y
EO-01;UNI-BOX;ABSOLUTE;-;115,00;115,50;0,4;2,0;LEFT;RIGHT;ANY;+50%;+50%
EO-02;UNI-BOX;ABSOLUTE;-;115,40;117,10;2,3;3,3;ANY;ABOVE;ANY;+50%;+50%
EO-03;OFF
EO-04;OFF

























Switch signal settings;Channel;Threshold at;;Trigger from;Reference;Latch until
Type S1;OFF
Type S2;OFF

















Device information
Device type;maXYmos BL
Device type number;5867B1011
Device serial number;5182443
Firmware version;2.3.2 (r22473-BL_v2.3.x)
-
-
-
-
-
IP Address;10.0.0.18
Network name;OP10
Profibus address;10
-
-
-
Station name;OP10
Company name;
Comment;











Channel-X settings
Use the settings from global setup;True
Sensor-X type;Â±10V
Unit;mm
Used range from;0,00;mm
Used range to;200,00;mm
Decimal places;XXXX.XX
Scaling by;Teach-In
Point 1;0,00;mm;-0,350;%
Point 2;200,00;mm;10,000;%
Invert signal;FALSE
Filter;20 Hz
Test point;0,00;mm
Tolerance;2,00;mm
Enable sensor test by dig-input;FALSE
Zoom from;100,00;mm
Zoom to;120,00;mm























Channel-Y settings
Use the settings from global setup;True
Sensor-Y type;Strain Gage
Unit;kN
Used range from;0,0;kN
Used range to;20,0;kN
Decimal places;XXXXX.X
Scaling by;Teach-In
Point 1;0,0;kN;-0,01562;%
Point 2;20,0;kN;2,00000;%
Invert signal;FALSE
Filter;1 Hz
Piezo reset;-
Test point;0,0;kN
Tolerance;0,1;kN
Enable sensor test by dig-input;FALSE
Zoom from;0,0;kN
Zoom to;5,0;kN












Cycle control settings
Use the settings from global setup;True
Measuring function;Y (X)
Delta-X;Automatic
START condition;Dig-Input
STOP condition;Dig-Input
Cycle time out;20,00;s
Turning point RIGHT;YMAX
Turning point LEFT;NONE
Cut curve at;NONE










Evaluation settings
Capture only first NOK-EO for statistics;False
Hysteresis-X;0,0;%
Hysteresis-Y;100,0;%






Trigger Y settings
Threshold;1,8;kN
Value X at TRIGGER Y;0,00;mm
Approach from;BELOW






Block settings
Value X at block;XMAX
Block at;0,00;mm







Measuring curve
Number of measuring points;286
Ref. Graph on;ABSOLUTE
Curve segments;0;286;285;286;


Time;X(ABSOLUTE);Y;X (ABSOLUTE)


s;mm;kN;mm
0,0000;0,11479;-0,04665;0,11479
0,1049;0,53021;-0,04674;0,53021
0,1082;0,95902;-0,04673;0,95902
0,1105;1,36454;-0,04673;1,36454
0,1124;1,77973;-0,04673;1,77973
0,1141;2,21295;-0,04672;2,21295
0,1156;2,64129;-0,04672;2,64129
0,1169;3,04309;-0,04672;3,04309
0,1182;3,46212;-0,04671;3,46212
0,1195;3,89046;-0,04670;3,89046
0,1208;4,32101;-0,04670;4,32101
0,1221;4,74876;-0,04669;4,74876
0,1234;5,17047;-0,04668;5,17047
0,1248;5,58356;-0,04667;5,58356
0,1261;5,98629;-0,04667;5,98629
0,1276;6,43197;-0,04665;6,43197
0,1291;6,86194;-0,04663;6,86194
0,1306;7,27747;-0,04661;7,27747
0,1321;7,68102;-0,04661;7,68102
0,1338;8,12368;-0,04658;8,12368
0,1355;8,55737;-0,04656;8,55737
0,1371;8,98489;-0,04653;8,98489
0,1388;9,40904;-0,04649;9,40904
0,1405;9,83191;-0,04645;9,83191
0,1422;10,25547;-0,04642;10,25547
0,1439;10,68032;-0,04637;10,68032
0,1456;11,10680;-0,04632;11,10680
0,1473;11,53490;-0,04628;11,53490
0,1490;11,96417;-0,04628;11,96417
0,1507;12,39391;-0,04622;12,39391
0,1524;12,82294;-0,04616;12,82294
0,1540;13,25024;-0,04609;13,25024
0,1557;13,67485;-0,04603;13,67485
0,1574;14,09585;-0,04595;14,09585
0,1591;14,51255;-0,04588;14,51255
0,1608;14,92448;-0,04580;14,92448
0,1625;15,33140;-0,04571;15,33140
0,1642;15,73309;-0,04562;15,73309
0,1661;16,17318;-0,04553;16,17318
0,1679;16,60687;-0,04543;16,60687
0,1698;17,03428;-0,04532;17,03428
0,1717;17,45575;-0,04521;17,45575
0,1736;17,87187;-0,04509;17,87187
0,1754;18,28321;-0,04497;18,28321
0,1773;18,69037;-0,04484;18,69037
0,1792;19,09380;-0,04471;19,09380
0,1811;19,49408;-0,04457;19,49408
0,1831;19,93150;-0,04444;19,93150
0,1852;20,36636;-0,04429;20,36636
0,1873;20,79958;-0,04413;20,79958
0,1893;21,23176;-0,04397;21,23176
0,1914;21,66371;-0,04381;21,66371
0,1935;22,09577;-0,04363;22,09577
0,1955;22,52830;-0,04345;22,52830
0,1976;22,96141;-0,04327;22,96141
0,1997;23,39522;-0,04308;23,39522
0,2017;23,82996;-0,04269;23,82996
0,2038;24,26587;-0,04247;24,26587
0,2059;24,70294;-0,04226;24,70294
0,2079;25,14128;-0,04204;25,14128
0,2100;25,58080;-0,04182;25,58080
0,2119;25,98108;-0,04158;25,98108
0,2137;26,38207;-0,04134;26,38207
0,2156;26,78340;-0,04109;26,78340
0,2175;27,18497;-0,04084;27,18497
0,2194;27,58665;-0,04058;27,58665
0,2213;27,98811;-0,04032;27,98811
0,2231;28,38921;-0,04005;28,38921
0,2250;28,78984;-0,03977;28,78984
0,2271;29,22971;-0,03949;29,22971
0,2291;29,66852;-0,03920;29,66852
0,2312;30,10617;-0,03890;30,10617
0,2333;30,54254;-0,03859;30,54254
0,2353;30,97775;-0,03829;30,97775
0,2374;31,41179;-0,03765;31,41179
0,2395;31,84455;-0,03733;31,84455
0,2415;32,27603;-0,03699;32,27603
0,2436;32,70600;-0,03665;32,70600
0,2457;33,13469;-0,03631;33,13469
0,2477;33,56221;-0,03596;33,56221
0,2498;33,98869;-0,03560;33,98869
0,2519;34,41400;-0,03523;34,41400
0,2539;34,83803;-0,03486;34,83803
0,2560;35,26066;-0,03448;35,26066
0,2580;35,68155;-0,03372;35,68155
0,2601;36,10046;-0,03332;36,10046
0,2622;36,51740;-0,03292;36,51740
0,2642;36,93235;-0,03252;36,93235
0,2663;37,34544;-0,03211;37,34544
0,2684;37,75667;-0,03169;37,75667
0,2704;38,16592;-0,03127;38,16592
0,2725;38,57342;-0,03085;38,57342
0,2746;38,97918;-0,03041;38,97918
0,2766;39,38319;-0,02998;39,38319
0,2787;39,78569;-0,02909;39,78569
0,2808;40,18667;-0,02863;40,18667
0,2830;40,62269;-0,02818;40,62269
0,2853;41,05697;-0,02772;41,05697
0,2875;41,48950;-0,02725;41,48950
0,2898;41,92051;-0,02677;41,92051
0,2920;42,35025;-0,02582;42,35025
0,2943;42,77917;-0,02534;42,77917
0,2965;43,20809;-0,02485;43,20809
0,2988;43,63782;-0,02435;43,63782
0,3010;44,06907;-0,02386;44,06907
0,3033;44,50230;-0,02285;44,50230
0,3055;44,93809;-0,02233;44,93809
0,3076;45,34024;-0,02182;45,34024
0,3097;45,74518;-0,02130;45,74518
0,3117;46,15350;-0,02077;46,15350
0,3138;46,56554;-0,02026;46,56554
0,3159;46,98154;-0,01972;46,98154
0,3179;47,40150;-0,01919;47,40150
0,3200;47,82565;-0,01811;47,82565
0,3221;48,25375;-0,01757;48,25375
0,3241;48,68593;-0,01703;48,68593
0,3262;49,12195;-0,01647;49,12195
0,3283;49,56170;-0,01592;49,56170
0,3301;49,96443;-0,01536;49,96443
0,3320;50,36972;-0,01480;50,36972
0,3339;50,77699;-0,01424;50,77699
0,3358;51,18624;-0,01367;51,18624
0,3377;51,59712;-0,01310;51,59712
0,3395;52,00928;-0,01254;52,00928
0,3414;52,42261;-0,01196;52,42261
0,3433;52,83651;-0,01138;52,83651
0,3452;53,25076;-0,01081;53,25076
0,3470;53,66502;-0,01022;53,66502
0,3489;54,07904;-0,00964;54,07904
0,3508;54,49248;-0,00905;54,49248
0,3527;54,90511;-0,00846;54,90511
0,3545;55,31692;-0,00787;55,31692
0,3564;55,72721;-0,00728;55,72721
0,3583;56,13576;-0,00669;56,13576
0,3602;56,54210;-0,00609;56,54210
0,3621;56,94565;-0,00549;56,94565
0,3639;57,34629;-0,00489;57,34629
0,3660;57,78335;-0,00430;57,78335
0,3681;58,21670;-0,00370;58,21670
0,3701;58,64620;-0,00309;58,64620
0,3722;59,07163;-0,00248;59,07163
0,3743;59,49298;-0,00188;59,49298
0,3763;59,91003;-0,00067;59,91003
0,3784;60,32301;-0,00006;60,32301
0,3805;60,73167;0,00055;60,73167
0,3825;61,13627;0,00116;61,13627
0,3846;61,53679;0,00177;61,53679
0,3868;61,96885;0,00238;61,96885
0,3891;62,39591;0,00299;62,39591
0,3913;62,81784;0,00421;62,81784
0,3936;63,23454;0,00482;63,23454
0,3959;63,64624;0,00543;63,64624
0,3981;64,05339;0,00604;64,05339
0,4004;64,45636;0,00665;64,45636
0,4028;64,88865;0,00787;64,88865
0,4052;65,31699;0,00848;65,31699
0,4077;65,74160;0,00908;65,74160
0,4101;66,16261;0,01029;66,16261
0,4126;66,58047;0,01090;66,58047
0,4150;66,99531;0,01150;66,99531
0,4174;67,40747;0,01211;67,40747
0,4199;67,81742;0,01331;67,81742
0,4223;68,22504;0,01391;68,22504
0,4248;68,63044;0,01450;68,63044
0,4272;69,03329;0,01570;69,03329
0,4296;69,43335;0,01629;69,43335
0,4323;69,86064;0,01688;69,86064
0,4349;70,28444;0,01806;70,28444
0,4375;70,70451;0,01864;70,70451
0,4402;71,12098;0,01981;71,12098
0,4428;71,53407;0,02039;71,53407
0,4454;71,94390;0,02096;71,94390
0,4480;72,35047;0,02212;72,35047
0,4507;72,75460;0,02269;72,75460
0,4533;73,15675;0,02382;73,15675
0,4559;73,55750;0,02439;73,55750
0,4587;73,98572;0,02495;73,98572
0,4616;74,41360;0,02606;74,41360
0,4644;74,84147;0,02662;74,84147
0,4672;75,26957;0,02772;75,26957
0,4700;75,69791;0,02827;75,69791
0,4726;76,09855;0,02935;76,09855
0,4753;76,50047;0,02990;76,50047
0,4779;76,90413;0,03096;76,90413
0,4805;77,30977;0,03149;77,30977
0,4832;77,71739;0,03202;77,71739
0,4858;78,12664;0,03306;78,12664
0,4884;78,53729;0,03359;78,53729
0,4910;78,94910;0,03462;78,94910
0,4937;79,36184;0,03513;79,36184
0,4963;79,77516;0,03564;79,77516
0,4989;80,18895;0,03665;80,18895
0,5015;80,60297;0,03714;80,60297
0,5042;81,01757;0,03813;81,01757
0,5068;81,43311;0,03862;81,43311
0,5094;81,84969;0,03911;81,84969
0,5121;82,26709;0,04007;82,26709
0,5147;82,68542;0,04055;82,68542
0,5173;83,10456;0,04151;83,10456
0,5199;83,52429;0,04197;83,52429
0,5226;83,94448;0,04244;83,94448
0,5252;84,36443;0,04337;84,36443
0,5278;84,78416;0,04382;84,78416
0,5305;85,20354;0,04473;85,20354
0,5331;85,62256;0,04518;85,62256
0,5357;86,04112;0,04562;86,04112
0,5383;86,45922;0,04651;86,45922
0,5410;86,87638;0,04695;86,87638
0,5436;87,29273;0,04782;87,29273
0,5462;87,70792;0,04824;87,70792
0,5489;88,12148;0,04868;88,12148
0,5515;88,53305;0,04952;88,53305
0,5541;88,94230;0,04994;88,94230
0,5567;89,34911;0,05077;89,34911
0,5594;89,75347;0,05118;89,75347
0,5620;90,15538;0,05159;90,15538
0,5648;90,58384;0,05239;90,58384
0,5676;91,01032;0,05279;91,01032
0,5704;91,43493;0,05358;91,43493
0,5733;91,85733;0,05397;91,85733
0,5761;92,27717;0,05474;92,27717
0,5789;92,69411;0,05512;92,69411
0,5817;93,10813;0,05588;93,10813
0,5845;93,51936;0,05625;93,51936
0,5873;93,92814;0,05699;93,92814
0,5902;94,33483;0,05736;94,33483
0,5930;94,73965;0,05808;94,73965
0,5958;95,14308;0,05845;95,14308
0,5986;95,54523;0,05915;95,54523
0,6014;95,94645;0,05950;95,94645
0,6042;96,34662;0,06020;96,34662
0,6072;96,77263;0,06087;96,77263
0,6103;97,19783;0,06121;97,19783
0,6133;97,62267;0,06188;97,62267
0,6163;98,04799;0,06221;98,04799
0,6193;98,47376;0,06286;98,47376
0,6223;98,89966;0,06351;98,89966
0,6253;99,32520;0,06382;99,32520
0,6283;99,74993;0,06445;99,74993
0,6313;100,17385;0,06477;100,17385
0,6343;100,59718;0,06538;100,59718
0,6373;101,02040;0,06599;101,02040
0,6403;101,44327;0,06629;101,44327
0,6433;101,86567;0,06688;101,86567
0,6463;102,28749;0,06717;102,28749
0,6493;102,70838;0,06775;102,70838
0,6523;103,12834;0,06832;103,12834
0,6553;103,54783;0,06861;103,54783
0,6583;103,96686;0,06917;103,96686
0,6613;104,38530;0,06944;104,38530
0,6643;104,80270;0,06999;104,80270
0,6673;105,21940;0,07054;105,21940
0,6703;105,63528;0,07080;105,63528
0,6733;106,05070;0,07133;106,05070
0,6763;106,46530;0,07159;106,46530
0,6793;106,87793;0,07211;106,87793
0,6823;107,28462;0,07262;107,28462
0,6855;107,70516;0,07288;107,70516
0,6887;108,10905;0,07338;108,10905
0,6921;108,51341;0,07388;108,51341
0,6959;108,92511;0,07437;108,92511
0,7002;109,33412;0,07485;109,33412
0,7058;109,74279;0,07558;109,74279
0,7182;110,14482;0,07726;110,14482
0,7770;110,55047;0,08617;110,55047
0,7854;110,95343;0,08773;110,95343
0,7916;111,36163;0,08945;111,36163
0,7971;111,77356;0,09084;111,77356
0,8021;112,17524;0,09181;112,17524
0,8076;112,58542;0,09336;112,58542
0,8153;112,98990;0,09559;112,98990
1,2910;113,39077;0,64498;113,39077
1,2972;113,79664;0,65102;113,79664
1,3019;114,21253;0,65694;114,21253
1,3062;114,62085;0,66084;114,62085
1,3105;115,02195;0,66470;115,02195
1,3156;115,42899;0,67042;115,42899
1,3240;115,83346;0,67795;115,83346
1,5122;116,09372;1,27874;116,09372
1,5760;116,11817;1,88152;116,11817
1,6248;116,13144;2,48453;116,13144
1,6680;116,14296;3,09074;116,14296
1,7093;116,15006;3,70770;116,15006
1,7487;116,16158;4,30887;116,16158
1,7793;116,16833;4,76419;116,16833
1,7825;116,16833;4,82057;116,16833
