Part protocol
Network name;Part_OP10_MP-001_2020-08-26_16-06-37_0037_OK.csv
Protocol version;2.01.00

Index;Result information;Process values - curve related;Process values - EO related;Evaluation objects settings;Switch signal settings;Device information;Channel-X settings;Channel-Y settings;Cycle control settings;Evaluation settings;Trigger Y settings;Block settings;Measuring curve;Measuring points;Sequence;
Line;10;30;40;70;100;120;150;190;220;240;250;260;270;280;600;



Result information
Date;2020/08/26
Time;16:06:37
Cycle number;37
Total result;OK
Triggered switch signals
Part serial number;0037
Measuring program name;D57-Left
Measuring program number;1
Zero X offset;0,00;mm
Tara Y offset;0,0;kN









Process values - curve related
Block X;126,38;mm;XMIN-X;-0,18;mm
Block Y;7,5;kN;XMIN-Y;0,0;kN
Ref X;-;mm;XMAX-X;126,38;mm
Peak-peak X;126,56;mm;XMAX-Y;7,5;kN
Peak-peak Y;7,5;kN;YMIN-X;0,23;mm
;;;YMIN-Y;0,0;kN
;;;YMAX-X;126,38;mm
;;;YMAX-Y;7,5;kN

Process values - EO related;Result;Entry;Exit;XMIN-X;XMIN-Y;XMAX-X;XMAX-Y;YMIN-Y;YMIN-X;YMAX-Y;YMAX-X
;;;;mm;kN;mm;kN;kN;mm;kN;mm
EO-01;OK;0,8;0,8;;;;;0,8;124,50;0,8;125,53;;;;;;
EO-02;OK;126,34;126,35;126,34;4,5;126,35;5,0;;;;;;;;;;
EO-03;None;
EO-04;None;
























Evaluation objects settings;Reaction;X reference;Y-Reference;XMin;XMax;YMin;YMax;Entry;Exit;Curve part;Catch zone X;Catch zone Y
EO-01;UNI-BOX;ABSOLUTE;-;124,50;125,70;0,5;3,0;LEFT;RIGHT;ANY;+50%;+50%
EO-02;UNI-BOX;ABSOLUTE;-;125,80;127,20;4,5;5,5;BELOW;ABOVE;ANY;+50%;+50%
EO-03;OFF
EO-04;OFF

























Switch signal settings;Channel;Threshold at;;Trigger from;Reference;Latch until
Type S1;OFF
Type S2;OFF

















Device information
Device type;maXYmos BL
Device type number;5867B1011
Device serial number;5182443
Firmware version;2.3.2 (r22473-BL_v2.3.x)
-
-
-
-
-
IP Address;10.0.0.18
Network name;OP10
Profibus address;10
-
-
-
Station name;OP10
Company name;
Comment;











Channel-X settings
Use the settings from global setup;True
Sensor-X type;Â±10V
Unit;mm
Used range from;0,00;mm
Used range to;200,00;mm
Decimal places;XXXX.XX
Scaling by;Teach-In
Point 1;0,00;mm;-0,350;%
Point 2;200,00;mm;10,000;%
Invert signal;FALSE
Filter;20 Hz
Test point;0,00;mm
Tolerance;2,00;mm
Enable sensor test by dig-input;FALSE
Zoom from;110,00;mm
Zoom to;133,11;mm























Channel-Y settings
Use the settings from global setup;True
Sensor-Y type;Strain Gage
Unit;kN
Used range from;0,0;kN
Used range to;20,0;kN
Decimal places;XXXXX.X
Scaling by;Teach-In
Point 1;0,0;kN;-0,01562;%
Point 2;20,0;kN;2,00000;%
Invert signal;FALSE
Filter;1 Hz
Piezo reset;-
Test point;0,0;kN
Tolerance;0,1;kN
Enable sensor test by dig-input;FALSE
Zoom from;0,0;kN
Zoom to;6,0;kN












Cycle control settings
Use the settings from global setup;True
Measuring function;Y (X)
Delta-X;Automatic
START condition;Dig-Input
STOP condition;Dig-Input
Cycle time out;20,00;s
Turning point RIGHT;YMAX
Turning point LEFT;NONE
Cut curve at;NONE










Evaluation settings
Capture only first NOK-EO for statistics;False
Hysteresis-X;0,0;%
Hysteresis-Y;100,0;%






Trigger Y settings
Threshold;1,9;kN
Value X at TRIGGER Y;0,00;mm
Approach from;BELOW






Block settings
Value X at block;XMAX
Block at;0,00;mm







Measuring curve
Number of measuring points;316
Ref. Graph on;ABSOLUTE
Curve segments;0;315;314;316;


Time;X(ABSOLUTE);Y;X (ABSOLUTE)


s;mm;kN;mm
0,0000;-0,18155;-0,03431;-0,18155
0,0996;0,22863;-0,03435;0,22863
0,1036;0,64067;-0,03435;0,64067
0,1064;1,05283;-0,03434;1,05283
0,1087;1,45603;-0,03434;1,45603
0,1107;1,88367;-0,03434;1,88367
0,1126;2,32074;-0,03434;2,32074
0,1143;2,75350;-0,03434;2,75350
0,1158;3,16915;-0,03434;3,16915
0,1173;3,61355;-0,03434;3,61355
0,1186;4,02571;-0,03433;4,02571
0,1199;4,45964;-0,03433;4,45964
0,1212;4,91475;-0,03432;4,91475
0,1224;5,31992;-0,03432;5,31992
0,1235;5,73580;-0,03432;5,73580
0,1246;6,15821;-0,03432;6,15821
0,1257;6,58224;-0,03431;6,58224
0,1269;7,00278;-0,03431;7,00278
0,1280;7,41540;-0,03431;7,41540
0,1291;7,81720;-0,03430;7,81720
0,1304;8,26975;-0,03430;8,26975
0,1317;8,70379;-0,03429;8,70379
0,1331;9,11921;-0,03428;9,11921
0,1346;9,57130;-0,03427;9,57130
0,1361;9,99987;-0,03427;9,99987
0,1376;10,40621;-0,03425;10,40621
0,1393;10,84037;-0,03424;10,84037
0,1409;11,25672;-0,03423;11,25672
0,1426;11,66236;-0,03421;11,66236
0,1443;12,06264;-0,03419;12,06264
0,1462;12,50413;-0,03417;12,50413
0,1481;12,94493;-0,03415;12,94493
0,1500;13,38770;-0,03412;13,38770
0,1516;13,79090;-0,03410;13,79090
0,1533;14,19956;-0,03408;14,19956
0,1550;14,61324;-0,03405;14,61324
0,1567;15,03110;-0,03405;15,03110
0,1584;15,45222;-0,03401;15,45222
0,1601;15,87683;-0,03398;15,87683
0,1618;16,30517;-0,03395;16,30517
0,1635;16,73700;-0,03391;16,73700
0,1652;17,17116;-0,03387;17,17116
0,1669;17,60683;-0,03383;17,60683
0,1685;18,04367;-0,03379;18,04367
0,1702;18,48225;-0,03374;18,48225
0,1719;18,92281;-0,03369;18,92281
0,1736;19,36500;-0,03369;19,36500
0,1753;19,80800;-0,03364;19,80800
0,1770;20,25124;-0,03359;20,25124
0,1787;20,69553;-0,03353;20,69553
0,1804;21,14167;-0,03348;21,14167
0,1821;21,59015;-0,03342;21,59015
0,1836;21,99020;-0,03336;21,99020
0,1851;22,39107;-0,03329;22,39107
0,1866;22,79229;-0,03329;22,79229
0,1881;23,19409;-0,03323;23,19409
0,1896;23,59694;-0,03315;23,59694
0,1911;24,00107;-0,03309;24,00107
0,1926;24,40636;-0,03301;24,40636
0,1941;24,81235;-0,03301;24,81235
0,1956;25,21846;-0,03293;25,21846
0,1971;25,62445;-0,03286;25,62445
0,1986;26,03079;-0,03277;26,03079
0,2001;26,43759;-0,03269;26,43759
0,2016;26,84521;-0,03269;26,84521
0,2031;27,25330;-0,03261;27,25330
0,2046;27,66126;-0,03251;27,66126
0,2061;28,06854;-0,03242;28,06854
0,2076;28,47476;-0,03233;28,47476
0,2091;28,88028;-0,03233;28,88028
0,2106;29,28499;-0,03223;29,28499
0,2121;29,68901;-0,03213;29,68901
0,2136;30,09197;-0,03203;30,09197
0,2151;30,49330;-0,03193;30,49330
0,2168;30,94271;-0,03193;30,94271
0,2185;31,38944;-0,03183;31,38944
0,2202;31,83396;-0,03172;31,83396
0,2219;32,27626;-0,03161;32,27626
0,2236;32,71636;-0,03149;32,71636
0,2252;33,15412;-0,03138;33,15412
0,2269;33,58945;-0,03126;33,58945
0,2286;34,02232;-0,03115;34,02232
0,2303;34,45299;-0,03103;34,45299
0,2320;34,88145;-0,03091;34,88145
0,2337;35,30757;-0,03091;35,30757
0,2354;35,73149;-0,03078;35,73149
0,2371;36,15308;-0,03066;36,15308
0,2388;36,57233;-0,03053;36,57233
0,2404;36,98903;-0,03040;36,98903
0,2421;37,40306;-0,03027;37,40306
0,2438;37,81428;-0,03013;37,81428
0,2455;38,22272;-0,03000;38,22272
0,2472;38,62848;-0,02987;38,62848
0,2489;39,03144;-0,02973;39,03144
0,2506;39,43196;-0,02973;39,43196
0,2525;39,87415;-0,02959;39,87415
0,2543;40,31366;-0,02945;40,31366
0,2562;40,75085;-0,02931;40,75085
0,2581;41,18594;-0,02916;41,18594
0,2600;41,61905;-0,02901;41,61905
0,2619;42,05018;-0,02887;42,05018
0,2637;42,47922;-0,02873;42,47922
0,2656;42,90604;-0,02858;42,90604
0,2675;43,33054;-0,02842;43,33054
0,2694;43,75271;-0,02827;43,75271
0,2712;44,17243;-0,02812;44,17243
0,2731;44,58995;-0,02797;44,58995
0,2750;45,00548;-0,02782;45,00548
0,2769;45,41927;-0,02766;45,41927
0,2787;45,83166;-0,02750;45,83166
0,2806;46,24254;-0,02735;46,24254
0,2825;46,65202;-0,02719;46,65202
0,2844;47,05988;-0,02703;47,05988
0,2863;47,46598;-0,02688;47,46598
0,2881;47,87034;-0,02671;47,87034
0,2900;48,27296;-0,02655;48,27296
0,2919;48,67406;-0,02639;48,67406
0,2938;49,07412;-0,02623;49,07412
0,2958;49,51293;-0,02590;49,51293
0,2979;49,95081;-0,02574;49,95081
0,3000;50,38753;-0,02557;50,38753
0,3020;50,82309;-0,02541;50,82309
0,3041;51,25736;-0,02525;51,25736
0,3062;51,69047;-0,02508;51,69047
0,3082;52,12254;-0,02491;52,12254
0,3103;52,55367;-0,02475;52,55367
0,3124;52,98422;-0,02458;52,98422
0,3144;53,41407;-0,02441;53,41407
0,3165;53,84345;-0,02408;53,84345
0,3185;54,27214;-0,02391;54,27214
0,3206;54,69990;-0,02374;54,69990
0,3227;55,12684;-0,02357;55,12684
0,3247;55,55285;-0,02340;55,55285
0,3268;55,97781;-0,02324;55,97781
0,3289;56,40173;-0,02307;56,40173
0,3309;56,82460;-0,02289;56,82460
0,3330;57,24665;-0,02273;57,24665
0,3351;57,66777;-0,02256;57,66777
0,3371;58,08785;-0,02222;58,08785
0,3392;58,50699;-0,02205;58,50699
0,3413;58,92474;-0,02188;58,92474
0,3433;59,34085;-0,02171;59,34085
0,3454;59,75534;-0,02154;59,75534
0,3475;60,16843;-0,02137;60,16843
0,3495;60,58024;-0,02120;60,58024
0,3516;60,99100;-0,02103;60,99100
0,3537;61,40084;-0,02086;61,40084
0,3557;61,80974;-0,02069;61,80974
0,3578;62,21759;-0,02035;62,21759
0,3599;62,62416;-0,02018;62,62416
0,3619;63,02934;-0,02002;63,02934
0,3640;63,43288;-0,01984;63,43288
0,3660;63,83503;-0,01967;63,83503
0,3681;64,23602;-0,01951;64,23602
0,3702;64,63607;-0,01934;64,63607
0,3724;65,07151;-0,01917;65,07151
0,3747;65,50602;-0,01883;65,50602
0,3769;65,93925;-0,01866;65,93925
0,3792;66,37084;-0,01850;66,37084
0,3814;66,80069;-0,01833;66,80069
0,3837;67,22868;-0,01816;67,22868
0,3859;67,65504;-0,01782;67,65504
0,3882;68,08036;-0,01766;68,08036
0,3905;68,50485;-0,01749;68,50485
0,3927;68,92877;-0,01732;68,92877
0,3950;69,35233;-0,01716;69,35233
0,3972;69,77555;-0,01682;69,77555
0,3995;70,19807;-0,01666;70,19807
0,4017;70,61954;-0,01650;70,61954
0,4040;71,03973;-0,01633;71,03973
0,4062;71,45829;-0,01617;71,45829
0,4085;71,87546;-0,01583;71,87546
0,4107;72,29146;-0,01567;72,29146
0,4130;72,70653;-0,01551;72,70653
0,4152;73,12078;-0,01534;73,12078
0,4175;73,53434;-0,01518;73,53434
0,4197;73,94708;-0,01485;73,94708
0,4220;74,35854;-0,01469;74,35854
0,4242;74,76860;-0,01453;74,76860
0,4265;75,17727;-0,01437;75,17727
0,4288;75,58489;-0,01420;75,58489
0,4310;75,99158;-0,01388;75,99158
0,4333;76,39780;-0,01372;76,39780
0,4355;76,80356;-0,01355;76,80356
0,4378;77,20862;-0,01340;77,20862
0,4400;77,61263;-0,01324;77,61263
0,4423;78,01560;-0,01292;78,01560
0,4445;78,41705;-0,01276;78,41705
0,4468;78,81710;-0,01259;78,81710
0,4492;79,24951;-0,01243;79,24951
0,4517;79,68088;-0,01212;79,68088
0,4541;80,11155;-0,01196;80,11155
0,4565;80,54116;-0,01181;80,54116
0,4590;80,96950;-0,01165;80,96950
0,4614;81,39598;-0,01132;81,39598
0,4639;81,82059;-0,01117;81,82059
0,4663;82,24323;-0,01101;82,24323
0,4687;82,66400;-0,01070;82,66400
0,4712;83,08291;-0,01055;83,08291
0,4736;83,50042;-0,01039;83,50042
0,4761;83,91654;-0,01007;83,91654
0,4785;84,33126;-0,00992;84,33126
0,4809;84,74482;-0,00976;84,74482
0,4834;85,15698;-0,00960;85,15698
0,4858;85,56786;-0,00930;85,56786
0,4883;85,97769;-0,00914;85,97769
0,4907;86,38670;-0,00898;86,38670
0,4931;86,79526;-0,00868;86,79526
0,4956;87,20346;-0,00852;87,20346
0,4980;87,61096;-0,00837;87,61096
0,5005;88,01730;-0,00807;88,01730
0,5029;88,42201;-0,00791;88,42201
0,5054;88,82497;-0,00775;88,82497
0,5078;89,22608;-0,00760;89,22608
0,5104;89,65593;-0,00730;89,65593
0,5130;90,08368;-0,00714;90,08368
0,5157;90,50981;-0,00683;90,50981
0,5183;90,93489;-0,00669;90,93489
0,5209;91,35927;-0,00654;91,35927
0,5236;91,78307;-0,00623;91,78307
0,5262;92,20629;-0,00607;92,20629
0,5288;92,62857;-0,00578;92,62857
0,5314;93,04935;-0,00562;93,04935
0,5341;93,46861;-0,00547;93,46861
0,5367;93,88635;-0,00517;93,88635
0,5393;94,30294;-0,00502;94,30294
0,5420;94,71870;-0,00472;94,71870
0,5446;95,13342;-0,00457;95,13342
0,5472;95,54698;-0,00442;95,54698
0,5498;95,95902;-0,00412;95,95902
0,5525;96,36944;-0,00396;96,36944
0,5551;96,77822;-0,00367;96,77822
0,5577;97,18561;-0,00352;97,18561
0,5604;97,59183;-0,00337;97,59183
0,5630;97,99747;-0,00308;97,99747
0,5656;98,40288;-0,00292;98,40288
0,5682;98,80829;-0,00262;98,80829
0,5709;99,21346;-0,00247;99,21346
0,5735;99,61794;-0,00233;99,61794
0,5761;100,02137;-0,00203;100,02137
0,5788;100,42364;-0,00188;100,42364
0,5814;100,82497;-0,00159;100,82497
0,5840;101,22549;-0,00144;101,22549
0,5868;101,65371;-0,00114;101,65371
0,5896;102,08100;-0,00099;102,08100
0,5925;102,50725;-0,00070;102,50725
0,5953;102,93244;-0,00055;102,93244
0,5981;103,35624;-0,00025;103,35624
0,6009;103,77469;-0,00010;103,77469
0,6037;104,18184;0,00019;104,18184
0,6067;104,60052;0,00034;104,60052
0,6097;105,00360;0,00064;105,00360
0,6129;105,41820;0,00078;105,41820
0,6161;105,82245;0,00108;105,82245
0,6195;106,24345;0,00138;106,24345
0,6229;106,66038;0,00167;106,66038
0,6263;107,07534;0,00198;107,07534
0,6296;107,49017;0,00213;107,49017
0,6330;107,90175;0,00242;107,90175
0,6366;108,30576;0,00273;108,30576
0,6411;108,70896;0,00304;108,70896
0,6525;109,11029;0,00417;109,11029
0,8131;109,51093;0,06088;109,51093
0,8194;109,91680;0,06543;109,91680
0,8238;110,31721;0,07016;110,31721
0,8275;110,73984;0,07344;110,73984
0,8307;111,14409;0,07511;111,14409
0,8337;111,55415;0,07851;111,55415
0,8365;111,95816;0,08201;111,95816
0,8393;112,37556;0,08379;112,37556
0,8422;112,80239;0,08741;112,80239
0,8448;113,20663;0,08925;113,20663
0,8474;113,61506;0,09111;113,61506
0,8500;114,02653;0,09489;114,02653
0,8527;114,44090;0,09681;114,44090
0,8553;114,85992;0,10070;114,85992
0,8579;115,28884;0,10268;115,28884
0,8604;115,70543;0,10467;115,70543
0,8626;116,11735;0,10668;116,11735
0,8647;116,52684;0,11076;116,52684
0,8668;116,96786;0,11281;116,96786
0,8686;117,38852;0,11488;117,38852
0,8705;117,81418;0,11698;117,81418
0,8724;118,22785;0,11909;118,22785
0,8744;118,64990;0,12121;118,64990
0,8767;119,05229;0,12334;119,05229
0,8795;119,45234;0,12549;119,45234
0,8840;119,85530;0,13202;119,85530
1,3139;120,26211;0,68566;120,26211
1,3205;120,67124;0,69174;120,67124
1,3252;121,08841;0,69784;121,08841
1,3293;121,50057;0,70195;121,50057
1,3335;121,90120;0,70609;121,90120
1,3389;122,31138;0,71243;122,31138
1,3509;122,71411;0,72789;122,71411
1,3618;123,11510;0,73980;123,11510
1,3671;123,51643;0,74737;123,51643
1,3712;123,91928;0,75262;123,91928
1,3750;124,32073;0,75804;124,32073
1,3785;124,72102;0,76364;124,72102
1,3821;125,12608;0,76942;125,12608
1,3860;125,53160;0,77539;125,53160
1,3915;125,93329;0,78471;125,93329
1,5631;126,25256;1,39256;126,25256
1,6476;126,28457;1,99855;126,28457
1,7133;126,30145;2,60834;126,30145
1,7715;126,31542;3,22928;126,31542
1,8240;126,32822;3,83377;126,32822
1,8747;126,33718;4,43607;126,33718
1,9254;126,34778;5,04020;126,34778
1,9780;126,35511;5,65361;126,35511
2,0324;126,36244;6,26258;126,36244
2,0906;126,37117;6,87465;126,37117
2,1526;126,37909;7,47653;126,37909
2,1545;126,37932;7,49394;126,37932
2,1554;126,37944;7,49394;126,37944
