Part protocol
Network name;Part_OP10_MP-001_2020-08-25_16-17-09_0008_OK.csv
Protocol version;2.01.00

Index;Result information;Process values - curve related;Process values - EO related;Evaluation objects settings;Switch signal settings;Device information;Channel-X settings;Channel-Y settings;Cycle control settings;Evaluation settings;Trigger Y settings;Block settings;Measuring curve;Measuring points;Sequence;
Line;10;30;40;70;100;120;150;190;220;240;250;260;270;280;600;



Result information
Date;2020/08/25
Time;16:17:09
Cycle number;8
Total result;OK
Triggered switch signals
Part serial number;0008
Measuring program name;D57-Left
Measuring program number;1
Zero X offset;0,00;mm
Tara Y offset;0,0;kN









Process values - curve related
Block X;126,33;mm;XMIN-X;-0,17;mm
Block Y;7,3;kN;XMIN-Y;0,0;kN
Ref X;-;mm;XMAX-X;126,33;mm
Peak-peak X;126,50;mm;XMAX-Y;7,3;kN
Peak-peak Y;7,4;kN;YMIN-X;0,24;mm
;;;YMIN-Y;0,0;kN
;;;YMAX-X;126,33;mm
;;;YMAX-Y;7,4;kN

Process values - EO related;Result;Entry;Exit;XMIN-X;XMIN-Y;XMAX-X;XMAX-Y;YMIN-Y;YMIN-X;YMAX-Y;YMAX-X
;;;;mm;kN;mm;kN;kN;mm;kN;mm
EO-01;OK;0,7;0,8;;;;;0,7;124,50;0,7;125,49;;;;;;
EO-02;OK;126,29;126,31;126,29;4,5;126,30;5,0;;;;;;;;;;
EO-03;None;
EO-04;None;
























Evaluation objects settings;Reaction;X reference;Y-Reference;XMin;XMax;YMin;YMax;Entry;Exit;Curve part;Catch zone X;Catch zone Y
EO-01;UNI-BOX;ABSOLUTE;-;124,50;125,70;0,5;3,0;LEFT;RIGHT;ANY;+50%;+50%
EO-02;UNI-BOX;ABSOLUTE;-;125,80;127,20;4,5;5,5;BELOW;ABOVE;ANY;+50%;+50%
EO-03;OFF
EO-04;OFF

























Switch signal settings;Channel;Threshold at;;Trigger from;Reference;Latch until
Type S1;OFF
Type S2;OFF

















Device information
Device type;maXYmos BL
Device type number;5867B1011
Device serial number;5182443
Firmware version;2.3.2 (r22473-BL_v2.3.x)
-
-
-
-
-
IP Address;10.0.0.18
Network name;OP10
Profibus address;10
-
-
-
Station name;OP10
Company name;
Comment;











Channel-X settings
Use the settings from global setup;True
Sensor-X type;Â±10V
Unit;mm
Used range from;0,00;mm
Used range to;200,00;mm
Decimal places;XXXX.XX
Scaling by;Teach-In
Point 1;0,00;mm;-0,350;%
Point 2;200,00;mm;10,000;%
Invert signal;FALSE
Filter;20 Hz
Test point;0,00;mm
Tolerance;2,00;mm
Enable sensor test by dig-input;FALSE
Zoom from;110,00;mm
Zoom to;133,11;mm























Channel-Y settings
Use the settings from global setup;True
Sensor-Y type;Strain Gage
Unit;kN
Used range from;0,0;kN
Used range to;20,0;kN
Decimal places;XXXXX.X
Scaling by;Teach-In
Point 1;0,0;kN;-0,01562;%
Point 2;20,0;kN;2,00000;%
Invert signal;FALSE
Filter;1 Hz
Piezo reset;-
Test point;0,0;kN
Tolerance;0,1;kN
Enable sensor test by dig-input;FALSE
Zoom from;0,0;kN
Zoom to;6,0;kN












Cycle control settings
Use the settings from global setup;True
Measuring function;Y (X)
Delta-X;Automatic
START condition;Dig-Input
STOP condition;Dig-Input
Cycle time out;20,00;s
Turning point RIGHT;YMAX
Turning point LEFT;NONE
Cut curve at;NONE










Evaluation settings
Capture only first NOK-EO for statistics;False
Hysteresis-X;0,0;%
Hysteresis-Y;100,0;%






Trigger Y settings
Threshold;1,9;kN
Value X at TRIGGER Y;0,00;mm
Approach from;BELOW






Block settings
Value X at block;XMAX
Block at;0,00;mm







Measuring curve
Number of measuring points;315
Ref. Graph on;ABSOLUTE
Curve segments;0;315;314;315;


Time;X(ABSOLUTE);Y;X (ABSOLUTE)


s;mm;kN;mm
0,0000;-0,17003;-0,04456;-0,17003
0,0972;0,24283;-0,04462;0,24283
0,1011;0,66744;-0,04462;0,66744
0,1039;1,09241;-0,04462;1,09241
0,1062;1,50806;-0,04462;1,50806
0,1082;1,94827;-0,04462;1,94827
0,1099;2,35018;-0,04461;2,35018
0,1116;2,78958;-0,04461;2,78958
0,1131;3,21082;-0,04461;3,21082
0,1146;3,66057;-0,04461;3,66057
0,1159;4,07716;-0,04461;4,07716
0,1172;4,51516;-0,04460;4,51516
0,1186;4,97376;-0,04460;4,97376
0,1197;5,38126;-0,04460;5,38126
0,1208;5,79878;-0,04459;5,79878
0,1219;6,22223;-0,04459;6,22223
0,1231;6,64637;-0,04458;6,64637
0,1242;7,06668;-0,04458;7,06668
0,1253;7,47907;-0,04458;7,47907
0,1264;7,88076;-0,04457;7,88076
0,1278;8,33365;-0,04457;8,33365
0,1291;8,76863;-0,04457;8,76863
0,1304;9,18568;-0,04456;9,18568
0,1319;9,64032;-0,04456;9,64032
0,1334;10,07238;-0,04454;10,07238
0,1349;10,48338;-0,04453;10,48338
0,1366;10,92394;-0,04452;10,92394
0,1383;11,34704;-0,04450;11,34704
0,1400;11,75885;-0,04448;11,75885
0,1417;12,16437;-0,04446;12,16437
0,1433;12,56699;-0,04444;12,56699
0,1450;12,96821;-0,04444;12,96821
0,1467;13,36954;-0,04442;13,36954
0,1484;13,77297;-0,04440;13,77297
0,1501;14,18024;-0,04437;14,18024
0,1518;14,59217;-0,04434;14,59217
0,1535;15,00852;-0,04432;15,00852
0,1552;15,42859;-0,04428;15,42859
0,1569;15,85193;-0,04425;15,85193
0,1585;16,27864;-0,04421;16,27864
0,1602;16,70895;-0,04418;16,70895
0,1619;17,14230;-0,04418;17,14230
0,1636;17,57843;-0,04413;17,57843
0,1653;18,01667;-0,04409;18,01667
0,1670;18,45699;-0,04405;18,45699
0,1687;18,89953;-0,04400;18,89953
0,1704;19,34428;-0,04395;19,34428
0,1721;19,79055;-0,04390;19,79055
0,1738;20,23786;-0,04384;20,23786
0,1754;20,68610;-0,04379;20,68610
0,1771;21,13539;-0,04373;21,13539
0,1786;21,53614;-0,04373;21,53614
0,1801;21,93806;-0,04368;21,93806
0,1816;22,34091;-0,04361;22,34091
0,1831;22,74422;-0,04355;22,74422
0,1846;23,14776;-0,04347;23,14776
0,1861;23,55166;-0,04347;23,55166
0,1876;23,95625;-0,04341;23,95625
0,1891;24,36155;-0,04333;24,36155
0,1907;24,76754;-0,04326;24,76754
0,1922;25,17364;-0,04318;25,17364
0,1937;25,57940;-0,04318;25,57940
0,1952;25,98458;-0,04310;25,98458
0,1967;26,38940;-0,04302;26,38940
0,1982;26,79411;-0,04293;26,79411
0,1997;27,19847;-0,04284;27,19847
0,2012;27,60248;-0,04284;27,60248
0,2027;28,00533;-0,04275;28,00533
0,2042;28,40655;-0,04266;28,40655
0,2059;28,85572;-0,04257;28,85572
0,2075;29,30257;-0,04246;29,30257
0,2092;29,74732;-0,04237;29,74732
0,2109;30,18963;-0,04227;30,18963
0,2126;30,62914;-0,04227;30,62914
0,2143;31,06562;-0,04216;31,06562
0,2160;31,49874;-0,04206;31,49874
0,2177;31,92859;-0,04195;31,92859
0,2194;32,35553;-0,04183;32,35553
0,2211;32,77968;-0,04172;32,77968
0,2228;33,20080;-0,04161;33,20080
0,2244;33,61913;-0,04149;33,61913
0,2261;34,03466;-0,04137;34,03466
0,2278;34,44764;-0,04125;34,44764
0,2295;34,85805;-0,04125;34,85805
0,2312;35,26602;-0,04113;35,26602
0,2329;35,67131;-0,04101;35,67131
0,2346;36,07404;-0,04088;36,07404
0,2363;36,47445;-0,04075;36,47445
0,2381;36,91698;-0,04063;36,91698
0,2400;37,35731;-0,04049;37,35731
0,2419;37,79554;-0,04036;37,79554
0,2438;38,23203;-0,04023;38,23203
0,2457;38,66724;-0,04009;38,66724
0,2475;39,10163;-0,03996;39,10163
0,2494;39,53520;-0,03982;39,53520
0,2513;39,96808;-0,03968;39,96808
0,2532;40,40038;-0,03954;40,40038
0,2550;40,83209;-0,03939;40,83209
0,2569;41,26311;-0,03925;41,26311
0,2588;41,69342;-0,03910;41,69342
0,2607;42,12304;-0,03896;42,12304
0,2626;42,55196;-0,03881;42,55196
0,2644;42,98053;-0,03866;42,98053
0,2663;43,40864;-0,03851;43,40864
0,2682;43,83616;-0,03835;43,83616
0,2701;44,26299;-0,03821;44,26299
0,2719;44,68912;-0,03805;44,68912
0,2738;45,11466;-0,03789;45,11466
0,2757;45,53951;-0,03773;45,53951
0,2776;45,96342;-0,03759;45,96342
0,2795;46,38629;-0,03742;46,38629
0,2813;46,80776;-0,03726;46,80776
0,2832;47,22807;-0,03710;47,22807
0,2851;47,64698;-0,03695;47,64698
0,2870;48,06449;-0,03678;48,06449
0,2888;48,48061;-0,03662;48,48061
0,2907;48,89533;-0,03646;48,89533
0,2926;49,30877;-0,03629;49,30877
0,2945;49,72070;-0,03613;49,72070
0,2963;50,13123;-0,03597;50,13123
0,2982;50,54024;-0,03580;50,54024
0,3001;50,94775;-0,03563;50,94775
0,3020;51,35374;-0,03547;51,35374
0,3039;51,75833;-0,03530;51,75833
0,3057;52,16141;-0,03513;52,16141
0,3076;52,56321;-0,03497;52,56321
0,3095;52,96362;-0,03479;52,96362
0,3116;53,40208;-0,03462;53,40208
0,3136;53,83857;-0,03446;53,83857
0,3157;54,27296;-0,03428;54,27296
0,3178;54,70537;-0,03411;54,70537
0,3198;55,13592;-0,03377;55,13592
0,3219;55,56461;-0,03360;55,56461
0,3239;55,99167;-0,03343;55,99167
0,3260;56,41709;-0,03325;56,41709
0,3281;56,84066;-0,03309;56,84066
0,3301;57,26225;-0,03291;57,26225
0,3322;57,68186;-0,03273;57,68186
0,3343;58,09937;-0,03257;58,09937
0,3363;58,51502;-0,03239;58,51502
0,3384;58,92869;-0,03222;58,92869
0,3405;59,34062;-0,03187;59,34062
0,3425;59,75057;-0,03170;59,75057
0,3446;60,15877;-0,03153;60,15877
0,3467;60,56534;-0,03136;60,56534
0,3487;60,97040;-0,03118;60,97040
0,3508;61,37383;-0,03101;61,37383
0,3529;61,77598;-0,03084;61,77598
0,3549;62,17650;-0,03066;62,17650
0,3572;62,61159;-0,03049;62,61159
0,3594;63,04493;-0,03014;63,04493
0,3617;63,47688;-0,02998;63,47688
0,3639;63,90755;-0,02980;63,90755
0,3662;64,33717;-0,02962;64,33717
0,3684;64,76597;-0,02946;64,76597
0,3707;65,19373;-0,02912;65,19373
0,3729;65,62055;-0,02894;65,62055
0,3752;66,04598;-0,02877;66,04598
0,3775;66,46990;-0,02860;66,46990
0,3797;66,89253;-0,02843;66,89253
0,3820;67,31389;-0,02809;67,31389
0,3842;67,73431;-0,02791;67,73431
0,3865;68,15403;-0,02775;68,15403
0,3887;68,57318;-0,02758;68,57318
0,3910;68,99186;-0,02740;68,99186
0,3932;69,40995;-0,02707;69,40995
0,3955;69,82758;-0,02690;69,82758
0,3977;70,24463;-0,02674;70,24463
0,4000;70,66098;-0,02656;70,66098
0,4022;71,07663;-0,02639;71,07663
0,4045;71,49147;-0,02606;71,49147
0,4067;71,90526;-0,02589;71,90526
0,4090;72,31811;-0,02573;72,31811
0,4112;72,72981;-0,02556;72,72981
0,4135;73,14057;-0,02539;73,14057
0,4158;73,55017;-0,02506;73,55017
0,4180;73,95872;-0,02489;73,95872
0,4203;74,36634;-0,02473;74,36634
0,4225;74,77280;-0,02456;74,77280
0,4248;75,17809;-0,02440;75,17809
0,4270;75,58233;-0,02407;75,58233
0,4293;75,98553;-0,02390;75,98553
0,4315;76,38814;-0,02375;76,38814
0,4338;76,79029;-0,02358;76,79029
0,4360;77,19198;-0,02342;77,19198
0,4383;77,59296;-0,02309;77,59296
0,4407;78,02596;-0,02293;78,02596
0,4432;78,45744;-0,02277;78,45744
0,4456;78,88729;-0,02244;78,88729
0,4480;79,31563;-0,02228;79,31563
0,4505;79,74234;-0,02213;79,74234
0,4529;80,16742;-0,02196;80,16742
0,4554;80,59087;-0,02164;80,59087
0,4578;81,01280;-0,02148;81,01280
0,4602;81,43369;-0,02132;81,43369
0,4627;81,85353;-0,02100;81,85353
0,4651;82,27221;-0,02084;82,27221
0,4676;82,68961;-0,02068;82,68961
0,4700;83,10561;-0,02037;83,10561
0,4724;83,52021;-0,02021;83,52021
0,4749;83,93354;-0,02005;83,93354
0,4773;84,34558;-0,01990;84,34558
0,4798;84,75634;-0,01957;84,75634
0,4822;85,16559;-0,01941;85,16559
0,4847;85,57333;-0,01926;85,57333
0,4871;85,97978;-0,01895;85,97978
0,4895;86,38484;-0,01879;86,38484
0,4920;86,78874;-0,01864;86,78874
0,4944;87,19135;-0,01832;87,19135
0,4969;87,59280;-0,01816;87,59280
0,4993;87,99321;-0,01801;87,99321
0,5019;88,42306;-0,01770;88,42306
0,5046;88,85151;-0,01754;88,85151
0,5072;89,27834;-0,01739;89,27834
0,5098;89,70295;-0,01708;89,70295
0,5124;90,12559;-0,01692;90,12559
0,5151;90,54648;-0,01662;90,54648
0,5177;90,96643;-0,01646;90,96643
0,5203;91,38593;-0,01631;91,38593
0,5230;91,80507;-0,01600;91,80507
0,5256;92,22421;-0,01585;92,22421
0,5282;92,64336;-0,01554;92,64336
0,5308;93,06168;-0,01539;93,06168
0,5335;93,47920;-0,01523;93,47920
0,5361;93,89566;-0,01492;93,89566
0,5387;94,31108;-0,01478;94,31108
0,5413;94,72534;-0,01447;94,72534
0,5440;95,13843;-0,01432;95,13843
0,5466;95,55035;-0,01417;95,55035
0,5492;95,96065;-0,01386;95,96065
0,5519;96,36955;-0,01371;96,36955
0,5545;96,77694;-0,01341;96,77694
0,5571;97,18351;-0,01326;97,18351
0,5597;97,58962;-0,01310;97,58962
0,5624;97,99549;-0,01280;97,99549
0,5650;98,40137;-0,01265;98,40137
0,5676;98,80701;-0,01235;98,80701
0,5703;99,21242;-0,01219;99,21242
0,5729;99,61678;-0,01205;99,61678
0,5755;100,02009;-0,01174;100,02009
0,5781;100,42212;-0,01159;100,42212
0,5808;100,82288;-0,01130;100,82288
0,5836;101,25063;-0,01114;101,25063
0,5864;101,67664;-0,01084;101,67664
0,5892;102,10079;-0,01069;102,10079
0,5920;102,52331;-0,01039;102,52331
0,5949;102,94420;-0,01024;102,94420
0,5977;103,36218;-0,00994;103,36218
0,6005;103,77504;-0,00980;103,77504
0,6033;104,18103;-0,00950;104,18103
0,6063;104,60541;-0,00935;104,60541
0,6093;105,02164;-0,00905;105,02164
0,6123;105,43101;-0,00890;105,43101
0,6153;105,83455;-0,00860;105,83455
0,6185;106,25800;-0,00831;106,25800
0,6217;106,67668;-0,00816;106,67668
0,6249;107,09082;-0,00786;107,09082
0,6281;107,50007;-0,00757;107,50007
0,6313;107,90338;-0,00742;107,90338
0,6347;108,32264;-0,00711;108,32264
0,6380;108,73282;-0,00682;108,73282
0,6414;109,13299;-0,00652;109,13299
0,6450;109,54492;-0,00622;109,54492
0,6485;109,94858;-0,00592;109,94858
0,6523;110,36831;-0,00561;110,36831
0,6561;110,78722;-0,00532;110,78722
0,6596;111,18750;-0,00500;111,18750
0,6632;111,59117;-0,00485;111,59117
0,6668;111,99913;-0,00454;111,99913
0,6703;112,41304;-0,00422;112,41304
0,6739;112,83451;-0,00391;112,83451
0,6773;113,24260;-0,00359;113,24260
0,6807;113,66116;-0,00326;113,66116
0,6838;114,06796;-0,00310;114,06796
0,6870;114,48606;-0,00277;114,48606
0,6900;114,88844;-0,00244;114,88844
0,6930;115,29757;-0,00226;115,29757
0,6960;115,71299;-0,00192;115,71299
0,6991;116,13446;-0,00158;116,13446
0,7021;116,55559;-0,00139;116,55559
0,7051;116,96728;-0,00104;116,96728
0,7081;117,36943;-0,00085;117,36943
0,7113;117,78648;-0,00049;117,78648
0,7148;118,20318;-0,00011;118,20318
0,7197;118,61242;0,00047;118,61242
0,8500;119,01248;0,03828;119,01248
1,2869;119,41474;0,63656;119,41474
1,2923;119,82062;0,64324;119,82062
1,2968;120,22591;0,64764;120,22591
1,3011;120,63888;0,65200;120,63888
1,3056;121,04872;0,65847;121,04872
1,3113;121,45552;0,66486;121,45552
1,3188;121,85814;0,67332;121,85814
1,3274;122,26063;0,68172;122,26063
1,3344;122,66139;0,69012;122,66139
1,3400;123,06226;0,69644;123,06226
1,3458;123,46522;0,70282;123,46522
1,3518;123,86527;0,70926;123,86527
1,3590;124,26929;0,71799;124,26929
1,3676;124,67795;0,72921;124,67795
1,3757;125,08604;0,73848;125,08604
1,3828;125,49203;0,74803;125,49203
1,3903;125,89953;0,75792;125,89953
1,5871;126,19914;1,36117;126,19914
1,6734;126,23441;1,96251;126,23441
1,7410;126,25349;2,57700;126,25349
1,7992;126,26560;3,18511;126,26560
1,8537;126,27724;3,79593;126,27724
1,9062;126,28969;4,40241;126,28969
1,9588;126,29842;5,00712;126,29842
2,0132;126,30762;5,61637;126,30762
2,0696;126,31926;6,21684;126,31926
2,1315;126,32636;6,83438;126,32636
2,1781;126,33288;7,25298;126,33288
2,1935;126,33136;7,40322;126,33136
