Part protocol
Network name;Part_OP10_MP-002_2020-08-25_14-28-09_0004_OK.csv
Protocol version;2.01.00

Index;Result information;Process values - curve related;Process values - EO related;Evaluation objects settings;Switch signal settings;Device information;Channel-X settings;Channel-Y settings;Cycle control settings;Evaluation settings;Trigger Y settings;Block settings;Measuring curve;Measuring points;Sequence;
Line;10;30;40;70;100;120;150;190;220;240;250;260;270;280;570;



Result information
Date;2020/08/25
Time;14:28:09
Cycle number;4
Total result;OK
Triggered switch signals
Part serial number;0004
Measuring program name;D57-Right
Measuring program number;2
Zero X offset;0,00;mm
Tara Y offset;0,0;kN









Process values - curve related
Block X;116,14;mm;XMIN-X;0,06;mm
Block Y;4,8;kN;XMIN-Y;0,0;kN
Ref X;-;mm;XMAX-X;116,14;mm
Peak-peak X;116,07;mm;XMAX-Y;4,8;kN
Peak-peak Y;4,9;kN;YMIN-X;0,47;mm
;;;YMIN-Y;0,0;kN
;;;YMAX-X;116,14;mm
;;;YMAX-Y;4,9;kN

Process values - EO related;Result;Entry;Exit;XMIN-X;XMIN-Y;XMAX-X;XMAX-Y;YMIN-Y;YMIN-X;YMAX-Y;YMAX-X
;;;;mm;kN;mm;kN;kN;mm;kN;mm
EO-01;OK;0,7;0,7;;;;;0,7;115,00;0,7;115,20;;;;;;
EO-02;OK;;116,11;116,09;2,3;116,11;3,2;2,3;116,09;;;;;;;;
EO-03;None;
EO-04;None;
























Evaluation objects settings;Reaction;X reference;Y-Reference;XMin;XMax;YMin;YMax;Entry;Exit;Curve part;Catch zone X;Catch zone Y
EO-01;UNI-BOX;ABSOLUTE;-;115,00;115,50;0,4;2,0;LEFT;RIGHT;ANY;+50%;+50%
EO-02;UNI-BOX;ABSOLUTE;-;115,40;117,10;2,3;3,3;ANY;ABOVE;ANY;+50%;+50%
EO-03;OFF
EO-04;OFF

























Switch signal settings;Channel;Threshold at;;Trigger from;Reference;Latch until
Type S1;OFF
Type S2;OFF

















Device information
Device type;maXYmos BL
Device type number;5867B1011
Device serial number;5182443
Firmware version;2.3.2 (r22473-BL_v2.3.x)
-
-
-
-
-
IP Address;10.0.0.18
Network name;OP10
Profibus address;10
-
-
-
Station name;OP10
Company name;
Comment;











Channel-X settings
Use the settings from global setup;True
Sensor-X type;Â±10V
Unit;mm
Used range from;0,00;mm
Used range to;200,00;mm
Decimal places;XXXX.XX
Scaling by;Teach-In
Point 1;0,00;mm;-0,350;%
Point 2;200,00;mm;10,000;%
Invert signal;FALSE
Filter;20 Hz
Test point;0,00;mm
Tolerance;2,00;mm
Enable sensor test by dig-input;FALSE
Zoom from;100,00;mm
Zoom to;120,00;mm























Channel-Y settings
Use the settings from global setup;True
Sensor-Y type;Strain Gage
Unit;kN
Used range from;0,0;kN
Used range to;20,0;kN
Decimal places;XXXXX.X
Scaling by;Teach-In
Point 1;0,0;kN;-0,01562;%
Point 2;20,0;kN;2,00000;%
Invert signal;FALSE
Filter;1 Hz
Piezo reset;-
Test point;0,0;kN
Tolerance;0,1;kN
Enable sensor test by dig-input;FALSE
Zoom from;0,0;kN
Zoom to;5,0;kN












Cycle control settings
Use the settings from global setup;True
Measuring function;Y (X)
Delta-X;Automatic
START condition;Dig-Input
STOP condition;Dig-Input
Cycle time out;20,00;s
Turning point RIGHT;YMAX
Turning point LEFT;NONE
Cut curve at;NONE










Evaluation settings
Capture only first NOK-EO for statistics;False
Hysteresis-X;0,0;%
Hysteresis-Y;100,0;%






Trigger Y settings
Threshold;1,8;kN
Value X at TRIGGER Y;0,00;mm
Approach from;BELOW






Block settings
Value X at block;XMAX
Block at;0,00;mm







Measuring curve
Number of measuring points;287
Ref. Graph on;ABSOLUTE
Curve segments;0;287;286;287;


Time;X(ABSOLUTE);Y;X (ABSOLUTE)


s;mm;kN;mm
0,0000;0,06300;-0,04648;0,06300
0,1089;0,47143;-0,04649;0,47143
0,1123;0,89791;-0,04649;0,89791
0,1146;1,30401;-0,04648;1,30401
0,1164;1,72164;-0,04648;1,72164
0,1181;2,15906;-0,04648;2,15906
0,1196;2,59241;-0,04647;2,59241
0,1210;2,99933;-0,04647;2,99933
0,1223;3,42417;-0,04646;3,42417
0,1236;3,85868;-0,04645;3,85868
0,1249;4,29587;-0,04645;4,29587
0,1262;4,73049;-0,04644;4,73049
0,1275;5,15906;-0,04644;5,15906
0,1288;5,57914;-0,04644;5,57914
0,1302;5,98908;-0,04642;5,98908
0,1317;6,44326;-0,04640;6,44326
0,1332;6,88231;-0,04638;6,88231
0,1347;7,30785;-0,04636;7,30785
0,1362;7,72211;-0,04636;7,72211
0,1377;8,12775;-0,04633;8,12775
0,1394;8,57657;-0,04631;8,57657
0,1410;9,02004;-0,04628;9,02004
0,1427;9,46060;-0,04624;9,46060
0,1444;9,90058;-0,04620;9,90058
0,1461;10,34149;-0,04617;10,34149
0,1478;10,78415;-0,04612;10,78415
0,1495;11,22866;-0,04612;11,22866
0,1512;11,67469;-0,04607;11,67469
0,1529;12,12142;-0,04602;12,12142
0,1546;12,56804;-0,04596;12,56804
0,1562;13,01325;-0,04590;13,01325
0,1579;13,45614;-0,04583;13,45614
0,1596;13,89554;-0,04577;13,89554
0,1613;14,33039;-0,04569;14,33039
0,1630;14,76001;-0,04561;14,76001
0,1647;15,18381;-0,04553;15,18381
0,1664;15,60144;-0,04553;15,60144
0,1681;16,01267;-0,04544;16,01267
0,1698;16,41738;-0,04535;16,41738
0,1716;16,85934;-0,04525;16,85934
0,1735;17,29338;-0,04515;17,29338
0,1754;17,71962;-0,04505;17,71962
0,1773;18,13876;-0,04493;18,13876
0,1792;18,55162;-0,04482;18,55162
0,1810;18,95889;-0,04469;18,95889
0,1829;19,36116;-0,04456;19,36116
0,1850;19,79869;-0,04443;19,79869
0,1870;20,23145;-0,04429;20,23145
0,1891;20,66037;-0,04399;20,66037
0,1912;21,08627;-0,04383;21,08627
0,1932;21,50995;-0,04367;21,50995
0,1953;21,93200;-0,04350;21,93200
0,1974;22,35301;-0,04332;22,35301
0,1994;22,77332;-0,04315;22,77332
0,2015;23,19339;-0,04296;23,19339
0,2036;23,61347;-0,04277;23,61347
0,2056;24,03401;-0,04257;24,03401
0,2077;24,45548;-0,04237;24,45548
0,2098;24,87811;-0,04195;24,87811
0,2118;25,30203;-0,04172;25,30203
0,2139;25,72722;-0,04149;25,72722
0,2159;26,15358;-0,04125;26,15358
0,2180;26,58087;-0,04101;26,58087
0,2201;27,00921;-0,04077;27,00921
0,2221;27,43860;-0,04051;27,43860
0,2242;27,86892;-0,04025;27,86892
0,2263;28,30051;-0,03999;28,30051
0,2283;28,73316;-0,03971;28,73316
0,2304;29,16685;-0,03915;29,16685
0,2325;29,60159;-0,03886;29,60159
0,2345;30,03726;-0,03857;30,03726
0,2366;30,47421;-0,03826;30,47421
0,2387;30,91256;-0,03796;30,91256
0,2405;31,31262;-0,03763;31,31262
0,2424;31,71442;-0,03732;31,71442
0,2443;32,11808;-0,03698;32,11808
0,2462;32,52407;-0,03665;32,52407
0,2481;32,93251;-0,03631;32,93251
0,2499;33,34362;-0,03596;33,34362
0,2518;33,75741;-0,03560;33,75741
0,2537;34,17387;-0,03524;34,17387
0,2556;34,59302;-0,03488;34,59302
0,2574;35,01449;-0,03451;35,01449
0,2593;35,43817;-0,03413;35,43817
0,2612;35,86383;-0,03374;35,86383
0,2631;36,29124;-0,03336;36,29124
0,2649;36,72016;-0,03296;36,72016
0,2668;37,15048;-0,03256;37,15048
0,2687;37,58196;-0,03215;37,58196
0,2706;38,01449;-0,03174;38,01449
0,2725;38,44771;-0,03132;38,44771
0,2743;38,88164;-0,03089;38,88164
0,2762;39,31603;-0,03046;39,31603
0,2781;39,75077;-0,03002;39,75077
0,2800;40,18563;-0,02958;40,18563
0,2818;40,62013;-0,02913;40,62013
0,2837;41,05418;-0,02868;41,05418
0,2856;41,48740;-0,02822;41,48740
0,2875;41,91947;-0,02775;41,91947
0,2894;42,35025;-0,02728;42,35025
0,2912;42,77952;-0,02681;42,77952
0,2931;43,20704;-0,02633;43,20704
0,2950;43,63259;-0,02585;43,63259
0,2969;44,05580;-0,02536;44,05580
0,2987;44,47669;-0,02487;44,47669
0,3006;44,89491;-0,02437;44,89491
0,3025;45,31032;-0,02386;45,31032
0,3044;45,72307;-0,02336;45,72307
0,3063;46,13301;-0,02284;46,13301
0,3081;46,53993;-0,02233;46,53993
0,3100;46,94371;-0,02180;46,94371
0,3119;47,34423;-0,02128;47,34423
0,3139;47,78119;-0,02076;47,78119
0,3160;48,21418;-0,02022;48,21418
0,3181;48,64333;-0,01968;48,64333
0,3201;49,06853;-0,01915;49,06853
0,3222;49,49012;-0,01860;49,49012
0,3243;49,90775;-0,01751;49,90775
0,3263;50,32153;-0,01695;50,32153
0,3284;50,73148;-0,01640;50,73148
0,3305;51,13759;-0,01583;51,13759
0,3325;51,54020;-0,01527;51,54020
0,3348;51,97553;-0,01470;51,97553
0,3370;52,40689;-0,01414;52,40689
0,3393;52,83465;-0,01299;52,83465
0,3415;53,25891;-0,01242;53,25891
0,3438;53,67980;-0,01184;53,67980
0,3461;54,09755;-0,01126;54,09755
0,3483;54,51250;-0,01068;54,51250
0,3506;54,92501;-0,00951;54,92501
0,3528;55,33531;-0,00892;55,33531
0,3551;55,74351;-0,00832;55,74351
0,3573;56,14985;-0,00773;56,14985
0,3596;56,55421;-0,00714;56,55421
0,3618;56,95694;-0,00595;56,95694
0,3641;57,35851;-0,00535;57,35851
0,3663;57,75938;-0,00476;57,75938
0,3686;58,16025;-0,00416;58,16025
0,3708;58,56158;-0,00356;58,56158
0,3731;58,96396;-0,00235;58,96396
0,3753;59,36716;-0,00175;59,36716
0,3776;59,77140;-0,00115;59,77140
0,3798;60,17658;-0,00055;60,17658
0,3821;60,58257;0,00006;60,58257
0,3844;60,98949;0,00127;60,98949
0,3866;61,39746;0,00188;61,39746
0,3889;61,80636;0,00248;61,80636
0,3911;62,21619;0,00308;62,21619
0,3934;62,62661;0,00369;62,62661
0,3956;63,03760;0,00490;63,03760
0,3979;63,44906;0,00551;63,44906
0,4001;63,86087;0,00611;63,86087
0,4024;64,27315;0,00671;64,27315
0,4046;64,68601;0,00732;64,68601
0,4069;65,09933;0,00852;65,09933
0,4091;65,51289;0,00912;65,51289
0,4114;65,92621;0,00973;65,92621
0,4136;66,33918;0,01033;66,33918
0,4159;66,75146;0,01093;66,75146
0,4181;67,16304;0,01212;67,16304
0,4204;67,57392;0,01273;67,57392
0,4227;67,98398;0,01332;67,98398
0,4249;68,39335;0,01391;68,39335
0,4272;68,80155;0,01450;68,80155
0,4294;69,20859;0,01569;69,20859
0,4317;69,61411;0,01628;69,61411
0,4339;70,01801;0,01687;70,01801
0,4362;70,42050;0,01746;70,42050
0,4384;70,82137;0,01804;70,82137
0,4409;71,25355;0,01921;71,25355
0,4433;71,68352;0,01979;71,68352
0,4457;72,11069;0,02036;72,11069
0,4482;72,53531;0,02152;72,53531
0,4506;72,95736;0,02209;72,95736
0,4531;73,37697;0,02266;73,37697
0,4555;73,79413;0,02323;73,79413
0,4579;74,20885;0,02436;74,20885
0,4604;74,62078;0,02493;74,62078
0,4628;75,03003;0,02549;75,03003
0,4653;75,43649;0,02660;75,43649
0,4677;75,84050;0,02716;75,84050
0,4701;76,24230;0,02770;76,24230
0,4728;76,67297;0,02880;76,67297
0,4754;77,10189;0,02935;77,10189
0,4780;77,52918;0,02989;77,52918
0,4807;77,95461;0,03097;77,95461
0,4833;78,37806;0,03150;78,37806
0,4859;78,79964;0,03256;78,79964
0,4885;79,21925;0,03309;79,21925
0,4912;79,63700;0,03361;79,63700
0,4938;80,05288;0,03466;80,05288
0,4964;80,46702;0,03516;80,46702
0,4991;80,87964;0,03619;80,87964
0,5017;81,29099;0,03670;81,29099
0,5043;81,70175;0,03720;81,70175
0,5069;82,11205;0,03820;82,11205
0,5096;82,52223;0,03870;82,52223
0,5122;82,93218;0,03968;82,93218
0,5148;83,34213;0,04017;83,34213
0,5175;83,75219;0,04065;83,75219
0,5201;84,16225;0,04162;84,16225
0,5227;84,57243;0,04209;84,57243
0,5253;84,98296;0,04303;84,98296
0,5280;85,39396;0,04350;85,39396
0,5306;85,80542;0,04397;85,80542
0,5332;86,21758;0,04488;86,21758
0,5359;86,63021;0,04534;86,63021
0,5385;87,04283;0,04624;87,04283
0,5411;87,45534;0,04669;87,45534
0,5437;87,86761;0,04713;87,86761
0,5464;88,27931;0,04801;88,27931
0,5490;88,69019;0,04845;88,69019
0,5516;89,10014;0,04931;89,10014
0,5543;89,50915;0,04973;89,50915
0,5569;89,91701;0,05016;89,91701
0,5595;90,32369;0,05100;90,32369
0,5621;90,72945;0,05142;90,72945
0,5648;91,13416;0,05224;91,13416
0,5674;91,53806;0,05265;91,53806
0,5700;91,94079;0,05305;91,94079
0,5727;92,34177;0,05385;92,34177
0,5755;92,76941;0,05424;92,76941
0,5783;93,19461;0,05503;93,19461
0,5811;93,61713;0,05542;93,61713
0,5839;94,03709;0,05619;94,03709
0,5867;94,45402;0,05657;94,45402
0,5896;94,86792;0,05732;94,86792
0,5924;95,27845;0,05769;95,27845
0,5952;95,68584;0,05843;95,68584
0,5980;96,08974;0,05879;96,08974
0,6008;96,48991;0,05950;96,48991
0,6038;96,91277;0,05986;96,91277
0,6068;97,33203;0,06057;97,33203
0,6098;97,74815;0,06125;97,74815
0,6128;98,16171;0,06159;98,16171
0,6158;98,57293;0,06227;98,57293
0,6188;98,98183;0,06261;98,98183
0,6218;99,38864;0,06327;99,38864
0,6248;99,79335;0,06392;99,79335
0,6279;100,19620;0,06424;100,19620
0,6309;100,59753;0,06488;100,59753
0,6339;100,99794;0,06519;100,99794
0,6369;101,39822;0,06581;101,39822
0,6399;101,79851;0,06643;101,79851
0,6429;102,19880;0,06673;102,19880
0,6459;102,59932;0,06732;102,59932
0,6489;102,99984;0,06762;102,99984
0,6519;103,40047;0,06820;103,40047
0,6549;103,80169;0,06879;103,80169
0,6579;104,20396;0,06906;104,20396
0,6609;104,60750;0,06963;104,60750
0,6639;105,01233;0,06991;105,01233
0,6669;105,41867;0,07046;105,41867
0,6699;105,82629;0,07100;105,82629
0,6729;106,23496;0,07127;106,23496
0,6759;106,64374;0,07180;106,64374
0,6789;107,04961;0,07206;107,04961
0,6821;107,47306;0,07258;107,47306
0,6853;107,88383;0,07310;107,88383
0,6887;108,29936;0,07361;108,29936
0,6922;108,70698;0,07411;108,70698
0,6964;109,12275;0,07461;109,12275
0,7014;109,52851;0,07510;109,52851
0,7101;109,93194;0,07632;109,93194
0,7717;110,33688;0,08567;110,33688
0,7816;110,73984;0,08760;110,73984
0,7882;111,14129;0,08932;111,14129
0,7938;111,54728;0,09071;111,54728
0,7991;111,94943;0,09169;111,94943
0,8045;112,35717;0,09324;112,35717
0,8111;112,76316;0,09547;112,76316
1,2748;113,16321;0,62837;113,16321
1,2879;113,57398;0,64298;113,57398
1,2930;113,98812;0,64908;113,98812
1,2973;114,38980;0,65310;114,38980
1,3017;114,79858;0,65707;114,79858
1,3063;115,20353;0,66298;115,20353
1,3125;115,60509;0,66882;115,60509
1,3910;116,00515;0,76973;116,00515
1,5164;116,06684;1,37272;116,06684
1,5765;116,08686;1,97272;116,08686
1,6253;116,09989;2,59016;116,09989
1,6685;116,11130;3,20311;116,11130
1,7098;116,12178;3,82166;116,12178
1,7511;116,13120;4,44927;116,13120
1,7789;116,13702;4,84490;116,13702
1,7793;116,13702;4,87291;116,13702
