Part protocol
Network name;Part_OP10_MP-002_2020-08-26_08-44-48_0009_OK.csv
Protocol version;2.01.00

Index;Result information;Process values - curve related;Process values - EO related;Evaluation objects settings;Switch signal settings;Device information;Channel-X settings;Channel-Y settings;Cycle control settings;Evaluation settings;Trigger Y settings;Block settings;Measuring curve;Measuring points;Sequence;
Line;10;30;40;70;100;120;150;190;220;240;250;260;270;280;570;



Result information
Date;2020/08/26
Time;08:44:48
Cycle number;9
Total result;OK
Triggered switch signals
Part serial number;0009
Measuring program name;D57-Right
Measuring program number;2
Zero X offset;0,00;mm
Tara Y offset;0,0;kN









Process values - curve related
Block X;116,16;mm;XMIN-X;-0,05;mm
Block Y;4,9;kN;XMIN-Y;0,0;kN
Ref X;-;mm;XMAX-X;116,16;mm
Peak-peak X;116,21;mm;XMAX-Y;4,9;kN
Peak-peak Y;4,9;kN;YMIN-X;-0,05;mm
;;;YMIN-Y;0,0;kN
;;;YMAX-X;116,16;mm
;;;YMAX-Y;4,9;kN

Process values - EO related;Result;Entry;Exit;XMIN-X;XMIN-Y;XMAX-X;XMAX-Y;YMIN-Y;YMIN-X;YMAX-Y;YMAX-X
;;;;mm;kN;mm;kN;kN;mm;kN;mm
EO-01;OK;0,6;0,6;;;;;0,6;115,00;0,6;115,35;;;;;;
EO-02;OK;;116,14;116,13;2,3;116,14;3,1;2,3;116,13;;;;;;;;
EO-03;None;
EO-04;None;
























Evaluation objects settings;Reaction;X reference;Y-Reference;XMin;XMax;YMin;YMax;Entry;Exit;Curve part;Catch zone X;Catch zone Y
EO-01;UNI-BOX;ABSOLUTE;-;115,00;115,50;0,4;2,0;LEFT;RIGHT;ANY;+50%;+50%
EO-02;UNI-BOX;ABSOLUTE;-;115,40;117,10;2,3;3,3;ANY;ABOVE;ANY;+50%;+50%
EO-03;OFF
EO-04;OFF

























Switch signal settings;Channel;Threshold at;;Trigger from;Reference;Latch until
Type S1;OFF
Type S2;OFF

















Device information
Device type;maXYmos BL
Device type number;5867B1011
Device serial number;5182443
Firmware version;2.3.2 (r22473-BL_v2.3.x)
-
-
-
-
-
IP Address;10.0.0.18
Network name;OP10
Profibus address;10
-
-
-
Station name;OP10
Company name;
Comment;











Channel-X settings
Use the settings from global setup;True
Sensor-X type;Â±10V
Unit;mm
Used range from;0,00;mm
Used range to;200,00;mm
Decimal places;XXXX.XX
Scaling by;Teach-In
Point 1;0,00;mm;-0,350;%
Point 2;200,00;mm;10,000;%
Invert signal;FALSE
Filter;20 Hz
Test point;0,00;mm
Tolerance;2,00;mm
Enable sensor test by dig-input;FALSE
Zoom from;100,00;mm
Zoom to;120,00;mm























Channel-Y settings
Use the settings from global setup;True
Sensor-Y type;Strain Gage
Unit;kN
Used range from;0,0;kN
Used range to;20,0;kN
Decimal places;XXXXX.X
Scaling by;Teach-In
Point 1;0,0;kN;-0,01562;%
Point 2;20,0;kN;2,00000;%
Invert signal;FALSE
Filter;1 Hz
Piezo reset;-
Test point;0,0;kN
Tolerance;0,1;kN
Enable sensor test by dig-input;FALSE
Zoom from;0,0;kN
Zoom to;5,0;kN












Cycle control settings
Use the settings from global setup;True
Measuring function;Y (X)
Delta-X;Automatic
START condition;Dig-Input
STOP condition;Dig-Input
Cycle time out;20,00;s
Turning point RIGHT;YMAX
Turning point LEFT;NONE
Cut curve at;NONE










Evaluation settings
Capture only first NOK-EO for statistics;False
Hysteresis-X;0,0;%
Hysteresis-Y;100,0;%






Trigger Y settings
Threshold;1,8;kN
Value X at TRIGGER Y;0,00;mm
Approach from;BELOW






Block settings
Value X at block;XMAX
Block at;0,00;mm







Measuring curve
Number of measuring points;283
Ref. Graph on;ABSOLUTE
Curve segments;0;282;281;283;


Time;X(ABSOLUTE);Y;X (ABSOLUTE)


s;mm;kN;mm
0,0000;-0,04630;-0,03876;-0,04630
0,1107;0,37005;-0,03871;0,37005
0,1137;0,79350;-0,03870;0,79350
0,1158;1,22521;-0,03869;1,22521
0,1175;1,67485;-0,03868;1,67485
0,1188;2,08375;-0,03868;2,08375
0,1201;2,53816;-0,03867;2,53816
0,1212;2,95696;-0,03865;2,95696
0,1224;3,39601;-0,03865;3,39601
0,1235;3,84949;-0,03863;3,84949
0,1246;4,31274;-0,03863;4,31274
0,1257;4,78147;-0,03861;4,78147
0,1269;5,25241;-0,03859;5,25241
0,1280;5,72288;-0,03859;5,72288
0,1291;6,19091;-0,03857;6,19091
0,1302;6,65534;-0,03857;6,65534
0,1314;7,11603;-0,03854;7,11603
0,1325;7,57359;-0,03850;7,57359
0,1336;8,02893;-0,03850;8,02893
0,1348;8,48311;-0,03846;8,48311
0,1359;8,93694;-0,03846;8,93694
0,1370;9,39146;-0,03842;9,39146
0,1381;9,84716;-0,03837;9,84716
0,1393;10,30494;-0,03837;10,30494
0,1404;10,76576;-0,03832;10,76576
0,1415;11,22994;-0,03832;11,22994
0,1426;11,69821;-0,03825;11,69821
0,1438;12,17078;-0,03819;12,17078
0,1449;12,64777;-0,03819;12,64777
0,1458;13,04840;-0,03811;13,04840
0,1468;13,45183;-0,03811;13,45183
0,1477;13,85794;-0,03804;13,85794
0,1486;14,26661;-0,03804;14,26661
0,1496;14,67749;-0,03796;14,67749
0,1505;15,09034;-0,03796;15,09034
0,1515;15,50495;-0,03786;15,50495
0,1524;15,92095;-0,03786;15,92095
0,1533;16,33823;-0,03777;16,33823
0,1543;16,75621;-0,03777;16,75621
0,1552;17,17477;-0,03767;17,17477
0,1562;17,59345;-0,03767;17,59345
0,1571;18,01201;-0,03756;18,01201
0,1580;18,43022;-0,03756;18,43022
0,1590;18,84750;-0,03744;18,84750
0,1599;19,26385;-0,03744;19,26385
0,1608;19,67880;-0,03731;19,67880
0,1618;20,09224;-0,03731;20,09224
0,1627;20,50382;-0,03718;20,50382
0,1637;20,91354;-0,03718;20,91354
0,1646;21,32104;-0,03704;21,32104
0,1655;21,72622;-0,03704;21,72622
0,1665;22,12906;-0,03689;22,12906
0,1674;22,52923;-0,03689;22,52923
0,1685;23,00576;-0,03674;23,00576
0,1697;23,47833;-0,03674;23,47833
0,1708;23,94659;-0,03658;23,94659
0,1719;24,41043;-0,03641;24,41043
0,1730;24,86985;-0,03641;24,86985
0,1742;25,32472;-0,03623;25,32472
0,1753;25,77495;-0,03623;25,77495
0,1764;26,22051;-0,03605;26,22051
0,1776;26,66130;-0,03585;26,66130
0,1787;27,09721;-0,03585;27,09721
0,1798;27,52811;-0,03565;27,52811
0,1809;27,95400;-0,03565;27,95400
0,1821;28,37466;-0,03545;28,37466
0,1832;28,79031;-0,03523;28,79031
0,1843;29,20061;-0,03523;29,20061
0,1854;29,60567;-0,03501;29,60567
0,1868;30,07148;-0,03478;30,07148
0,1881;30,53009;-0,03478;30,53009
0,1894;30,98124;-0,03454;30,98124
0,1907;31,42506;-0,03430;31,42506
0,1920;31,86154;-0,03430;31,86154
0,1933;32,29093;-0,03405;32,29093
0,1946;32,71321;-0,03379;32,71321
0,1960;33,12863;-0,03379;33,12863
0,1973;33,53718;-0,03352;33,53718
0,1986;33,93887;-0,03324;33,93887
0,2001;34,38990;-0,03297;34,38990
0,2016;34,83221;-0,03297;34,83221
0,2031;35,26625;-0,03268;35,26625
0,2046;35,69226;-0,03238;35,69226
0,2061;36,11071;-0,03208;36,11071
0,2076;36,52182;-0,03177;36,52182
0,2091;36,92618;-0,03177;36,92618
0,2108;37,37349;-0,03146;37,37349
0,2125;37,81300;-0,03113;37,81300
0,2142;38,24542;-0,03081;38,24542
0,2159;38,67096;-0,03047;38,67096
0,2175;39,09010;-0,03012;39,09010
0,2192;39,50343;-0,02978;39,50343
0,2209;39,91105;-0,02942;39,91105
0,2226;40,31355;-0,02906;40,31355
0,2245;40,75504;-0,02870;40,75504
0,2264;41,19106;-0,02832;41,19106
0,2282;41,62207;-0,02794;41,62207
0,2301;42,04855;-0,02756;42,04855
0,2320;42,47095;-0,02716;42,47095
0,2339;42,88986;-0,02676;42,88986
0,2358;43,30551;-0,02637;43,30551
0,2376;43,71860;-0,02596;43,71860
0,2395;44,12937;-0,02554;44,12937
0,2414;44,53827;-0,02513;44,53827
0,2433;44,94577;-0,02470;44,94577
0,2451;45,35223;-0,02426;45,35223
0,2470;45,75822;-0,02383;45,75822
0,2489;46,16397;-0,02339;46,16397
0,2508;46,56996;-0,02294;46,56996
0,2527;46,97654;-0,02249;46,97654
0,2545;47,38369;-0,02203;47,38369
0,2564;47,79166;-0,02157;47,79166
0,2583;48,20056;-0,02110;48,20056
0,2602;48,61063;-0,02064;48,61063
0,2620;49,02220;-0,02015;49,02220
0,2639;49,43553;-0,01967;49,43553
0,2658;49,85071;-0,01919;49,85071
0,2677;50,26799;-0,01869;50,26799
0,2695;50,68737;-0,01820;50,68737
0,2714;51,10884;-0,01770;51,10884
0,2733;51,53276;-0,01719;51,53276
0,2752;51,95923;-0,01668;51,95923
0,2771;52,38815;-0,01617;52,38815
0,2789;52,81952;-0,01566;52,81952
0,2808;53,25321;-0,01514;53,25321
0,2827;53,68911;-0,01461;53,68911
0,2846;54,12723;-0,01408;54,12723
0,2864;54,56732;-0,01355;54,56732
0,2883;55,00928;-0,01301;55,00928
0,2902;55,45287;-0,01246;55,45287
0,2919;55,85304;-0,01192;55,85304
0,2936;56,25402;-0,01192;56,25402
0,2953;56,65582;-0,01137;56,65582
0,2970;57,05832;-0,01081;57,05832
0,2986;57,46140;-0,01026;57,46140
0,3003;57,86495;-0,00969;57,86495
0,3020;58,26873;-0,00913;58,26873
0,3037;58,67286;-0,00857;58,67286
0,3054;59,07687;-0,00799;59,07687
0,3071;59,48088;-0,00742;59,48088
0,3088;59,88477;-0,00683;59,88477
0,3105;60,28867;-0,00683;60,28867
0,3122;60,69245;-0,00626;60,69245
0,3139;61,09611;-0,00567;61,09611
0,3155;61,49966;-0,00508;61,49966
0,3172;61,90274;-0,00449;61,90274
0,3189;62,30512;-0,00390;62,30512
0,3206;62,70669;-0,00331;62,70669
0,3223;63,10732;-0,00271;63,10732
0,3242;63,55103;-0,00210;63,55103
0,3261;63,99333;-0,00150;63,99333
0,3279;64,43412;-0,00089;64,43412
0,3298;64,87329;-0,00029;64,87329
0,3317;65,31070;0,00032;65,31070
0,3336;65,74626;0,00093;65,74626
0,3354;66,18007;0,00155;66,18007
0,3373;66,61202;0,00217;66,61202
0,3392;67,04222;0,00278;67,04222
0,3411;67,47044;0,00340;67,47044
0,3430;67,89703;0,00403;67,89703
0,3448;68,32165;0,00465;68,32165
0,3467;68,74451;0,00528;68,74451
0,3486;69,16563;0,00591;69,16563
0,3505;69,58489;0,00653;69,58489
0,3523;70,00241;0,00716;70,00241
0,3542;70,41806;0,00780;70,41806
0,3561;70,83185;0,00843;70,83185
0,3580;71,24366;0,00906;71,24366
0,3599;71,65326;0,00970;71,65326
0,3617;72,06099;0,01034;72,06099
0,3636;72,46675;0,01097;72,46675
0,3655;72,87076;0,01161;72,87076
0,3674;73,27291;0,01224;73,27291
0,3692;73,67343;0,01288;73,67343
0,3713;74,11201;0,01352;74,11201
0,3734;74,54850;0,01416;74,54850
0,3754;74,98289;0,01480;74,98289
0,3775;75,41519;0,01544;75,41519
0,3796;75,84574;0,01608;75,84574
0,3816;76,27477;0,01672;76,27477
0,3837;76,70230;0,01735;76,70230
0,3858;77,12807;0,01863;77,12807
0,3878;77,55187;0,01927;77,55187
0,3899;77,97358;0,01991;77,97358
0,3920;78,39295;0,02055;78,39295
0,3940;78,81023;0,02119;78,81023
0,3961;79,22519;0,02183;79,22519
0,3982;79,63828;0,02246;79,63828
0,4002;80,04916;0,02309;80,04916
0,4023;80,45794;0,02373;80,45794
0,4043;80,86440;0,02437;80,86440
0,4064;81,26853;0,02563;81,26853
0,4085;81,67044;0,02626;81,67044
0,4107;82,10635;0,02690;82,10635
0,4130;82,53992;0,02753;82,53992
0,4152;82,97140;0,02815;82,97140
0,4175;83,40091;0,02878;83,40091
0,4197;83,82843;0,03003;83,82843
0,4220;84,25432;0,03065;84,25432
0,4242;84,67859;0,03127;84,67859
0,4265;85,10169;0,03189;85,10169
0,4288;85,52351;0,03251;85,52351
0,4310;85,94405;0,03374;85,94405
0,4333;86,36366;0,03435;86,36366
0,4355;86,78234;0,03496;86,78234
0,4378;87,20020;0,03557;87,20020
0,4400;87,61736;0,03618;87,61736
0,4423;88,03371;0,03739;88,03371
0,4445;88,44925;0,03799;88,44925
0,4468;88,86397;0,03859;88,86397
0,4490;89,27776;0,03919;89,27776
0,4513;89,69050;0,03978;89,69050
0,4535;90,10196;0,04097;90,10196
0,4558;90,51237;0,04156;90,51237
0,4580;90,92174;0,04214;90,92174
0,4603;91,33029;0,04273;91,33029
0,4625;91,73791;0,04331;91,73791
0,4648;92,14471;0,04447;92,14471
0,4671;92,55047;0,04504;92,55047
0,4693;92,95530;0,04562;92,95530
0,4716;93,35896;0,04618;93,35896
0,4738;93,76169;0,04675;93,76169
0,4761;94,16338;0,04788;94,16338
0,4783;94,56401;0,04844;94,56401
0,4808;94,99712;0,04899;94,99712
0,4832;95,42895;0,04955;95,42895
0,4856;95,85950;0,05065;95,85950
0,4881;96,28877;0,05120;96,28877
0,4905;96,71723;0,05174;96,71723
0,4930;97,14464;0,05283;97,14464
0,4954;97,57146;0,05336;97,57146
0,4978;97,99747;0,05389;97,99747
0,5003;98,42278;0,05496;98,42278
0,5027;98,84716;0,05547;98,84716
0,5052;99,27061;0,05600;99,27061
0,5076;99,69302;0,05652;99,69302
0,5100;100,11449;0,05755;100,11449
0,5125;100,53514;0,05806;100,53514
0,5149;100,95510;0,05857;100,95510
0,5174;101,37448;0,05957;101,37448
0,5198;101,79339;0,06007;101,79339
0,5222;102,21148;0,06057;102,21148
0,5247;102,62900;0,06156;102,62900
0,5271;103,04593;0,06205;103,04593
0,5296;103,46274;0,06253;103,46274
0,5320;103,87944;0,06301;103,87944
0,5345;104,29626;0,06397;104,29626
0,5369;104,71284;0,06444;104,71284
0,5393;105,12931;0,06492;105,12931
0,5418;105,54542;0,06585;105,54542
0,5442;105,96073;0,06631;105,96073
0,5467;106,37440;0,06677;106,37440
0,5491;106,78423;0,06768;106,78423
0,5515;107,18766;0,06813;107,18766
0,5542;107,61146;0,06858;107,61146
0,5568;108,02048;0,06947;108,02048
0,5596;108,43694;0,06991;108,43694
0,5626;108,84864;0,07079;108,84864
0,5660;109,26161;0,07166;109,26161
0,5699;109,66318;0,07251;109,66318
0,5756;110,06987;0,07378;110,06987
0,6334;110,47015;0,08671;110,47015
0,6516;110,87742;0,09181;110,87742
0,6591;111,28504;0,09407;111,28504
0,6649;111,69604;0,09586;111,69604
0,6700;112,10249;0,09775;112,10249
0,6751;112,50825;0,09974;112,50825
0,6818;112,91075;0,10183;112,91075
1,0449;113,31243;0,55424;113,31243
1,0504;113,72273;0,56300;113,72273
1,0539;114,12535;0,56590;114,12535
1,0575;114,54437;0,57168;114,54437
1,0613;114,94641;0,57743;114,94641
1,0658;115,34972;0,58601;115,34972
1,0725;115,75478;0,59456;115,75478
1,2381;116,09710;1,19966;116,09710
1,3001;116,11526;1,82078;116,11526
1,3470;116,12818;2,44276;116,12818
1,3883;116,13912;3,06562;116,13912
1,4258;116,14738;3,66674;116,14738
1,4634;116,15495;4,27900;116,15495
1,4991;116,16240;4,85454;116,16240
1,4996;116,16251;4,85454;116,16251
