Part protocol
Network name;Part_OP10_MP-001_2020-08-26_10-26-15_0015_OK.csv
Protocol version;2.01.00

Index;Result information;Process values - curve related;Process values - EO related;Evaluation objects settings;Switch signal settings;Device information;Channel-X settings;Channel-Y settings;Cycle control settings;Evaluation settings;Trigger Y settings;Block settings;Measuring curve;Measuring points;Sequence;
Line;10;30;40;70;100;120;150;190;220;240;250;260;270;280;600;



Result information
Date;2020/08/26
Time;10:26:15
Cycle number;15
Total result;OK
Triggered switch signals
Part serial number;0015
Measuring program name;D57-Left
Measuring program number;1
Zero X offset;0,00;mm
Tara Y offset;0,0;kN









Process values - curve related
Block X;126,37;mm;XMIN-X;-0,16;mm
Block Y;7,4;kN;XMIN-Y;0,0;kN
Ref X;-;mm;XMAX-X;126,37;mm
Peak-peak X;126,53;mm;XMAX-Y;7,4;kN
Peak-peak Y;7,4;kN;YMIN-X;-0,16;mm
;;;YMIN-Y;0,0;kN
;;;YMAX-X;126,37;mm
;;;YMAX-Y;7,4;kN

Process values - EO related;Result;Entry;Exit;XMIN-X;XMIN-Y;XMAX-X;XMAX-Y;YMIN-Y;YMIN-X;YMAX-Y;YMAX-X
;;;;mm;kN;mm;kN;kN;mm;kN;mm
EO-01;OK;0,8;0,8;;;;;0,8;124,50;0,8;125,45;;;;;;
EO-02;OK;126,33;126,35;126,33;4,5;126,34;5,1;;;;;;;;;;
EO-03;None;
EO-04;None;
























Evaluation objects settings;Reaction;X reference;Y-Reference;XMin;XMax;YMin;YMax;Entry;Exit;Curve part;Catch zone X;Catch zone Y
EO-01;UNI-BOX;ABSOLUTE;-;124,50;125,70;0,5;3,0;LEFT;RIGHT;ANY;+50%;+50%
EO-02;UNI-BOX;ABSOLUTE;-;125,80;127,20;4,5;5,5;BELOW;ABOVE;ANY;+50%;+50%
EO-03;OFF
EO-04;OFF

























Switch signal settings;Channel;Threshold at;;Trigger from;Reference;Latch until
Type S1;OFF
Type S2;OFF

















Device information
Device type;maXYmos BL
Device type number;5867B1011
Device serial number;5182443
Firmware version;2.3.2 (r22473-BL_v2.3.x)
-
-
-
-
-
IP Address;10.0.0.18
Network name;OP10
Profibus address;10
-
-
-
Station name;OP10
Company name;
Comment;











Channel-X settings
Use the settings from global setup;True
Sensor-X type;Â±10V
Unit;mm
Used range from;0,00;mm
Used range to;200,00;mm
Decimal places;XXXX.XX
Scaling by;Teach-In
Point 1;0,00;mm;-0,350;%
Point 2;200,00;mm;10,000;%
Invert signal;FALSE
Filter;20 Hz
Test point;0,00;mm
Tolerance;2,00;mm
Enable sensor test by dig-input;FALSE
Zoom from;110,00;mm
Zoom to;133,11;mm























Channel-Y settings
Use the settings from global setup;True
Sensor-Y type;Strain Gage
Unit;kN
Used range from;0,0;kN
Used range to;20,0;kN
Decimal places;XXXXX.X
Scaling by;Teach-In
Point 1;0,0;kN;-0,01562;%
Point 2;20,0;kN;2,00000;%
Invert signal;FALSE
Filter;1 Hz
Piezo reset;-
Test point;0,0;kN
Tolerance;0,1;kN
Enable sensor test by dig-input;FALSE
Zoom from;0,0;kN
Zoom to;6,0;kN












Cycle control settings
Use the settings from global setup;True
Measuring function;Y (X)
Delta-X;Automatic
START condition;Dig-Input
STOP condition;Dig-Input
Cycle time out;20,00;s
Turning point RIGHT;YMAX
Turning point LEFT;NONE
Cut curve at;NONE










Evaluation settings
Capture only first NOK-EO for statistics;False
Hysteresis-X;0,0;%
Hysteresis-Y;100,0;%






Trigger Y settings
Threshold;1,9;kN
Value X at TRIGGER Y;0,00;mm
Approach from;BELOW






Block settings
Value X at block;XMAX
Block at;0,00;mm







Measuring curve
Number of measuring points;315
Ref. Graph on;ABSOLUTE
Curve segments;0;314;313;315;


Time;X(ABSOLUTE);Y;X (ABSOLUTE)


s;mm;kN;mm
0,0000;-0,16002;-0,03553;-0,16002
0,0998;0,24504;-0,03548;0,24504
0,1037;0,65545;-0,03548;0,65545
0,1065;1,06866;-0,03547;1,06866
0,1088;1,47500;-0,03547;1,47500
0,1109;1,90741;-0,03547;1,90741
0,1127;2,35018;-0,03547;2,35018
0,1144;2,78912;-0,03547;2,78912
0,1159;3,21082;-0,03547;3,21082
0,1174;3,66162;-0,03546;3,66162
0,1187;4,07983;-0,03546;4,07983
0,1201;4,52016;-0,03546;4,52016
0,1214;4,98156;-0,03545;4,98156
0,1225;5,39162;-0,03545;5,39162
0,1236;5,81193;-0,03545;5,81193
0,1248;6,23782;-0,03544;6,23782
0,1259;6,66453;-0,03544;6,66453
0,1270;7,08717;-0,03543;7,08717
0,1281;7,50177;-0,03542;7,50177
0,1293;7,90590;-0,03542;7,90590
0,1306;8,36217;-0,03541;8,36217
0,1319;8,80087;-0,03540;8,80087
0,1332;9,22118;-0,03540;9,22118
0,1345;9,62263;-0,03539;9,62263
0,1360;10,05853;-0,03537;10,05853
0,1375;10,47139;-0,03536;10,47139
0,1392;10,91288;-0,03536;10,91288
0,1409;11,33680;-0,03535;11,33680
0,1426;11,74942;-0,03533;11,74942
0,1443;12,15506;-0,03531;12,15506
0,1460;12,55675;-0,03529;12,55675
0,1478;13,00115;-0,03526;13,00115
0,1495;13,40260;-0,03524;13,40260
0,1512;13,80789;-0,03522;13,80789
0,1529;14,21807;-0,03519;14,21807
0,1546;14,63279;-0,03516;14,63279
0,1563;15,05147;-0,03512;15,05147
0,1580;15,47387;-0,03512;15,47387
0,1597;15,90011;-0,03509;15,90011
0,1614;16,33043;-0,03506;16,33043
0,1631;16,76401;-0,03502;16,76401
0,1647;17,19956;-0,03498;17,19956
0,1664;17,63640;-0,03494;17,63640
0,1681;18,07451;-0,03489;18,07451
0,1698;18,51461;-0,03485;18,51461
0,1715;18,95657;-0,03480;18,95657
0,1732;19,39992;-0,03474;19,39992
0,1749;19,84374;-0,03474;19,84374
0,1766;20,28802;-0,03469;20,28802
0,1783;20,73312;-0,03463;20,73312
0,1799;21,18008;-0,03458;21,18008
0,1816;21,62903;-0,03451;21,62903
0,1831;22,02920;-0,03446;22,02920
0,1846;22,42972;-0,03438;22,42972
0,1861;22,83035;-0,03438;22,83035
0,1876;23,23110;-0,03432;23,23110
0,1891;23,63267;-0,03424;23,63267
0,1907;24,03505;-0,03418;24,03505
0,1922;24,43825;-0,03410;24,43825
0,1937;24,84168;-0,03410;24,84168
0,1952;25,24488;-0,03402;25,24488
0,1967;25,64761;-0,03394;25,64761
0,1982;26,05022;-0,03385;26,05022
0,1997;26,45307;-0,03377;26,45307
0,2012;26,85627;-0,03377;26,85627
0,2027;27,25981;-0,03369;27,25981
0,2042;27,66289;-0,03360;27,66289
0,2057;28,06516;-0,03350;28,06516
0,2072;28,46638;-0,03341;28,46638
0,2087;28,86667;-0,03341;28,86667
0,2104;29,31596;-0,03331;29,31596
0,2121;29,76396;-0,03322;29,76396
0,2137;30,21046;-0,03311;30,21046
0,2154;30,65463;-0,03301;30,65463
0,2171;31,09659;-0,03290;31,09659
0,2188;31,53610;-0,03279;31,53610
0,2205;31,97363;-0,03268;31,97363
0,2222;32,40895;-0,03257;32,40895
0,2239;32,84230;-0,03246;32,84230
0,2256;33,27331;-0,03246;33,27331
0,2273;33,70212;-0,03234;33,70212
0,2289;34,12883;-0,03222;34,12883
0,2306;34,55344;-0,03210;34,55344
0,2323;34,97584;-0,03198;34,97584
0,2340;35,39615;-0,03186;35,39615
0,2357;35,81390;-0,03173;35,81390
0,2374;36,22943;-0,03160;36,22943
0,2391;36,64252;-0,03147;36,64252
0,2408;37,05328;-0,03134;37,05328
0,2425;37,46172;-0,03134;37,46172
0,2442;37,86794;-0,03120;37,86794
0,2458;38,27195;-0,03107;38,27195
0,2475;38,67399;-0,03093;38,67399
0,2492;39,07416;-0,03079;39,07416
0,2511;39,51658;-0,03065;39,51658
0,2530;39,95679;-0,03050;39,95679
0,2549;40,39491;-0,03037;40,39491
0,2567;40,83116;-0,03022;40,83116
0,2586;41,26555;-0,03008;41,26555
0,2605;41,69820;-0,02993;41,69820
0,2624;42,12898;-0,02978;42,12898
0,2642;42,55790;-0,02963;42,55790
0,2661;42,98473;-0,02948;42,98473
0,2680;43,40969;-0,02933;43,40969
0,2699;43,83256;-0,02917;43,83256
0,2718;44,25345;-0,02902;44,25345
0,2736;44,67236;-0,02887;44,67236
0,2755;45,08964;-0,02871;45,08964
0,2774;45,50540;-0,02855;45,50540
0,2793;45,92012;-0,02839;45,92012
0,2811;46,33391;-0,02824;46,33391
0,2830;46,74665;-0,02808;46,74665
0,2849;47,15835;-0,02792;47,15835
0,2868;47,56841;-0,02775;47,56841
0,2887;47,97685;-0,02760;47,97685
0,2905;48,38365;-0,02743;48,38365
0,2924;48,78871;-0,02726;48,78871
0,2943;49,19249;-0,02711;49,19249
0,2962;49,59522;-0,02694;49,59522
0,2980;49,99691;-0,02677;49,99691
0,2999;50,39777;-0,02661;50,39777
0,3018;50,79795;-0,02644;50,79795
0,3039;51,23711;-0,02627;51,23711
0,3059;51,67522;-0,02611;51,67522
0,3080;52,11229;-0,02594;52,11229
0,3101;52,54808;-0,02577;52,54808
0,3121;52,98282;-0,02544;52,98282
0,3142;53,41651;-0,02526;53,41651
0,3162;53,84927;-0,02510;53,84927
0,3183;54,28099;-0,02493;54,28099
0,3204;54,71166;-0,02476;54,71166
0,3224;55,14092;-0,02459;55,14092
0,3245;55,56868;-0,02441;55,56868
0,3266;55,99492;-0,02425;55,99492
0,3286;56,41977;-0,02408;56,41977
0,3307;56,84299;-0,02390;56,84299
0,3328;57,26516;-0,02356;57,26516
0,3348;57,68628;-0,02339;57,68628
0,3369;58,10647;-0,02322;58,10647
0,3390;58,52573;-0,02304;58,52573
0,3410;58,94406;-0,02288;58,94406
0,3431;59,36134;-0,02270;59,36134
0,3452;59,77699;-0,02253;59,77699
0,3472;60,19101;-0,02236;60,19101
0,3493;60,60329;-0,02219;60,60329
0,3514;61,01382;-0,02202;61,01382
0,3534;61,42307;-0,02167;61,42307
0,3555;61,83104;-0,02150;61,83104
0,3576;62,23784;-0,02133;62,23784
0,3596;62,64348;-0,02115;62,64348
0,3617;63,04784;-0,02099;63,04784
0,3637;63,45058;-0,02081;63,45058
0,3658;63,85191;-0,02065;63,85191
0,3681;64,28805;-0,02047;64,28805
0,3703;64,72255;-0,02013;64,72255
0,3726;65,15555;-0,01996;65,15555
0,3748;65,58738;-0,01979;65,58738
0,3771;66,01816;-0,01962;66,01816
0,3793;66,44801;-0,01945;66,44801
0,3816;66,87693;-0,01911;66,87693
0,3838;67,30457;-0,01894;67,30457
0,3861;67,73070;-0,01878;67,73070
0,3883;68,15531;-0,01860;68,15531
0,3906;68,57842;-0,01843;68,57842
0,3928;68,99989;-0,01810;68,99989
0,3951;69,42043;-0,01793;69,42043
0,3974;69,84015;-0,01777;69,84015
0,3996;70,25918;-0,01759;70,25918
0,4019;70,67751;-0,01742;70,67751
0,4041;71,09525;-0,01709;71,09525
0,4064;71,51218;-0,01692;71,51218
0,4086;71,92807;-0,01676;71,92807
0,4109;72,34256;-0,01660;72,34256
0,4131;72,75565;-0,01643;72,75565
0,4154;73,16757;-0,01610;73,16757
0,4176;73,57857;-0,01593;73,57857
0,4199;73,98922;-0,01577;73,98922
0,4221;74,39963;-0,01561;74,39963
0,4244;74,80958;-0,01544;74,80958
0,4266;75,21883;-0,01512;75,21883
0,4289;75,62726;-0,01495;75,62726
0,4311;76,03453;-0,01479;76,03453
0,4334;76,44064;-0,01463;76,44064
0,4357;76,84570;-0,01446;76,84570
0,4379;77,24971;-0,01414;77,24971
0,4402;77,65302;-0,01398;77,65302
0,4424;78,05552;-0,01381;78,05552
0,4447;78,45744;-0,01366;78,45744
0,4469;78,85842;-0,01350;78,85842
0,4492;79,25848;-0,01318;79,25848
0,4516;79,69042;-0,01302;79,69042
0,4541;80,12074;-0,01285;80,12074
0,4565;80,54954;-0,01269;80,54954
0,4589;80,97660;-0,01238;80,97660
0,4614;81,40226;-0,01222;81,40226
0,4638;81,82653;-0,01205;81,82653
0,4663;82,24905;-0,01174;82,24905
0,4687;82,67005;-0,01158;82,67005
0,4711;83,08943;-0,01143;83,08943
0,4736;83,50752;-0,01111;83,50752
0,4760;83,92411;-0,01095;83,92411
0,4785;84,33918;-0,01080;84,33918
0,4809;84,75273;-0,01064;84,75273
0,4833;85,16489;-0,01032;85,16489
0,4858;85,57600;-0,01017;85,57600
0,4882;85,98595;-0,01002;85,98595
0,4907;86,39485;-0,00970;86,39485
0,4931;86,80212;-0,00955;86,80212
0,4955;87,20776;-0,00939;87,20776
0,4980;87,61189;-0,00908;87,61189
0,5004;88,01439;-0,00893;88,01439
0,5029;88,41561;-0,00878;88,41561
0,5053;88,81566;-0,00862;88,81566
0,5079;89,24517;-0,00832;89,24517
0,5106;89,67327;-0,00816;89,67327
0,5132;90,09986;-0,00785;90,09986
0,5158;90,52448;-0,00769;90,52448
0,5184;90,94723;-0,00755;90,94723
0,5211;91,36847;-0,00723;91,36847
0,5237;91,78877;-0,00708;91,78877
0,5263;92,20850;-0,00678;92,20850
0,5290;92,62776;-0,00663;92,62776
0,5316;93,04644;-0,00647;93,04644
0,5342;93,46407;-0,00617;93,46407
0,5368;93,88065;-0,00602;93,88065
0,5395;94,29607;-0,00571;94,29607
0,5421;94,71056;-0,00557;94,71056
0,5447;95,12411;-0,00541;95,12411
0,5474;95,53674;-0,00511;95,53674
0,5500;95,94855;-0,00495;95,94855
0,5526;96,35919;-0,00466;96,35919
0,5552;96,76856;-0,00451;96,76856
0,5579;97,17653;-0,00435;97,17653
0,5605;97,58357;-0,00406;97,58357
0,5631;97,98979;-0,00391;97,98979
0,5658;98,39520;-0,00360;98,39520
0,5684;98,79967;-0,00346;98,79967
0,5710;99,20299;-0,00331;99,20299
0,5736;99,60514;-0,00301;99,60514
0,5763;100,00624;-0,00285;100,00624
0,5789;100,40629;-0,00256;100,40629
0,5817;100,83440;-0,00241;100,83440
0,5845;101,26181;-0,00211;101,26181
0,5873;101,68898;-0,00196;101,68898
0,5902;102,11569;-0,00167;102,11569
0,5930;102,54007;-0,00152;102,54007
0,5958;102,95991;-0,00122;102,95991
0,5986;103,37417;-0,00107;103,37417
0,6014;103,78295;-0,00077;103,78295
0,6042;104,18789;-0,00062;104,18789
0,6071;104,59062;-0,00033;104,59062
0,6099;104,99196;-0,00018;104,99196
0,6129;105,41820;0,00012;105,41820
0,6159;105,84270;0,00027;105,84270
0,6189;106,26534;0,00056;106,26534
0,6219;106,68576;0,00086;106,68576
0,6249;107,10374;0,00101;107,10374
0,6279;107,51904;0,00130;107,51904
0,6309;107,93120;0,00145;107,93120
0,6339;108,34045;0,00176;108,34045
0,6369;108,74725;0,00205;108,74725
0,6399;109,15290;0,00221;109,15290
0,6429;109,55819;0,00251;109,55819
0,6459;109,96406;0,00266;109,96406
0,6489;110,37133;0,00296;110,37133
0,6519;110,78047;0,00327;110,78047
0,6549;111,19181;0,00342;111,19181
0,6579;111,60571;0,00374;111,60571
0,6609;112,02206;0,00389;112,02206
0,6639;112,44016;0,00420;112,44016
0,6669;112,85732;0,00451;112,85732
0,6700;113,27100;0,00467;113,27100
0,6730;113,67885;0,00500;113,67885
0,6760;114,07960;0,00515;114,07960
0,6792;114,49735;0,00548;114,49735
0,6823;114,90660;0,00580;114,90660
0,6855;115,30735;0,00597;115,30735
0,6889;115,72219;0,00630;115,72219
0,6923;116,12795;0,00663;116,12795
0,6959;116,54942;0,00698;116,54942
0,6994;116,96716;0,00732;116,96716
0,7030;117,38409;0,00766;117,38409
0,7066;117,79532;0,00801;117,79532
0,7107;118,21156;0,00838;118,21156
0,7171;118,61662;0,00893;118,61662
1,2583;118,94578;0,61000;118,94578
1,2839;119,35224;0,64062;119,35224
1,2886;119,76033;0,64741;119,76033
1,2927;120,16236;0,65187;120,16236
1,2968;120,56416;0,65629;120,56416
1,3015;120,97911;0,66285;120,97911
1,3079;121,38545;0,66933;121,38545
1,3195;121,78679;0,68212;121,78679
1,3299;122,19592;0,69487;122,19592
1,3362;122,60435;0,70128;122,60435
1,3434;123,01139;0,70995;123,01139
1,3537;123,41668;0,72111;123,41668
1,3695;123,81744;0,74256;123,81744
1,3796;124,22424;0,75554;124,22424
1,3869;124,63186;0,76661;124,63186
1,3933;125,03797;0,77535;125,03797
1,4006;125,44803;0,78764;125,44803
1,4080;125,85577;0,80069;125,85577
1,5812;126,23848;1,40610;126,23848
1,6732;126,27258;2,01244;126,27258
1,7446;126,29365;2,62241;126,29365
1,8065;126,30832;3,23940;126,30832
1,8629;126,31996;3,85040;126,31996
1,9173;126,33195;4,46489;126,33195
1,9717;126,34219;5,08292;126,34219
2,0262;126,34941;5,68797;126,34941
2,0844;126,35813;6,30669;126,35813
2,1463;126,36884;6,92355;126,36884
2,1989;126,37257;7,40955;126,37257
2,1991;126,37268;7,40955;126,37268
