Part protocol
Network name;Part_OP10_MP-001_2020-08-25_14-20-19_0002_OK.csv
Protocol version;2.01.00

Index;Result information;Process values - curve related;Process values - EO related;Evaluation objects settings;Switch signal settings;Device information;Channel-X settings;Channel-Y settings;Cycle control settings;Evaluation settings;Trigger Y settings;Block settings;Measuring curve;Measuring points;Sequence;
Line;10;30;40;70;100;120;150;190;220;240;250;260;270;280;600;



Result information
Date;2020/08/25
Time;14:20:19
Cycle number;2
Total result;OK
Triggered switch signals
Part serial number;0002
Measuring program name;D57-Left
Measuring program number;1
Zero X offset;0,00;mm
Tara Y offset;0,0;kN









Process values - curve related
Block X;126,47;mm;XMIN-X;-0,12;mm
Block Y;7,4;kN;XMIN-Y;0,0;kN
Ref X;-;mm;XMAX-X;126,47;mm
Peak-peak X;126,59;mm;XMAX-Y;7,4;kN
Peak-peak Y;7,6;kN;YMIN-X;0,28;mm
;;;YMIN-Y;0,0;kN
;;;YMAX-X;126,47;mm
;;;YMAX-Y;7,5;kN

Process values - EO related;Result;Entry;Exit;XMIN-X;XMIN-Y;XMAX-X;XMAX-Y;YMIN-Y;YMIN-X;YMAX-Y;YMAX-X
;;;;mm;kN;mm;kN;kN;mm;kN;mm
EO-01;OK;0,7;0,7;;;;;0,7;124,50;0,7;125,62;;;;;;
EO-02;OK;126,43;126,44;126,43;4,5;126,43;5,0;;;;;;;;;;
EO-03;None;
EO-04;None;
























Evaluation objects settings;Reaction;X reference;Y-Reference;XMin;XMax;YMin;YMax;Entry;Exit;Curve part;Catch zone X;Catch zone Y
EO-01;UNI-BOX;ABSOLUTE;-;124,50;125,70;0,5;3,0;LEFT;RIGHT;ANY;+50%;+50%
EO-02;UNI-BOX;ABSOLUTE;-;125,80;127,20;4,5;5,5;BELOW;ABOVE;ANY;+50%;+50%
EO-03;OFF
EO-04;OFF

























Switch signal settings;Channel;Threshold at;;Trigger from;Reference;Latch until
Type S1;OFF
Type S2;OFF

















Device information
Device type;maXYmos BL
Device type number;5867B1011
Device serial number;5182443
Firmware version;2.3.2 (r22473-BL_v2.3.x)
-
-
-
-
-
IP Address;10.0.0.18
Network name;OP10
Profibus address;10
-
-
-
Station name;OP10
Company name;
Comment;











Channel-X settings
Use the settings from global setup;True
Sensor-X type;Â±10V
Unit;mm
Used range from;0,00;mm
Used range to;200,00;mm
Decimal places;XXXX.XX
Scaling by;Teach-In
Point 1;0,00;mm;-0,350;%
Point 2;200,00;mm;10,000;%
Invert signal;FALSE
Filter;20 Hz
Test point;0,00;mm
Tolerance;2,00;mm
Enable sensor test by dig-input;FALSE
Zoom from;110,00;mm
Zoom to;133,11;mm























Channel-Y settings
Use the settings from global setup;True
Sensor-Y type;Strain Gage
Unit;kN
Used range from;0,0;kN
Used range to;20,0;kN
Decimal places;XXXXX.X
Scaling by;Teach-In
Point 1;0,0;kN;-0,01562;%
Point 2;20,0;kN;2,00000;%
Invert signal;FALSE
Filter;1 Hz
Piezo reset;-
Test point;0,0;kN
Tolerance;0,1;kN
Enable sensor test by dig-input;FALSE
Zoom from;0,0;kN
Zoom to;6,0;kN












Cycle control settings
Use the settings from global setup;True
Measuring function;Y (X)
Delta-X;Automatic
START condition;Dig-Input
STOP condition;Dig-Input
Cycle time out;20,00;s
Turning point RIGHT;YMAX
Turning point LEFT;NONE
Cut curve at;NONE










Evaluation settings
Capture only first NOK-EO for statistics;False
Hysteresis-X;0,0;%
Hysteresis-Y;100,0;%






Trigger Y settings
Threshold;1,9;kN
Value X at TRIGGER Y;0,00;mm
Approach from;BELOW






Block settings
Value X at block;XMAX
Block at;0,00;mm







Measuring curve
Number of measuring points;317
Ref. Graph on;ABSOLUTE
Curve segments;0;317;316;317;


Time;X(ABSOLUTE);Y;X (ABSOLUTE)


s;mm;kN;mm
0,0000;-0,11823;-0,04587;-0,11823
0,0996;0,28462;-0,04593;0,28462
0,1036;0,69968;-0,04593;0,69968
0,1064;1,11336;-0,04593;1,11336
0,1087;1,51562;-0,04593;1,51562
0,1107;1,93931;-0,04593;1,93931
0,1126;2,36916;-0,04593;2,36916
0,1143;2,79214;-0,04593;2,79214
0,1158;3,19662;-0,04593;3,19662
0,1173;3,62740;-0,04592;3,62740
0,1188;4,08414;-0,04592;4,08414
0,1201;4,50480;-0,04592;4,50480
0,1214;4,94466;-0,04592;4,94466
0,1227;5,40151;-0,04591;5,40151
0,1239;5,80355;-0,04591;5,80355
0,1250;6,21093;-0,04591;6,21093
0,1261;6,61914;-0,04590;6,61914
0,1272;7,02408;-0,04590;7,02408
0,1286;7,48710;-0,04589;7,48710
0,1299;7,93639;-0,04589;7,93639
0,1312;8,36927;-0,04588;8,36927
0,1325;8,78516;-0,04588;8,78516
0,1340;9,23945;-0,04587;9,23945
0,1355;9,67210;-0,04586;9,67210
0,1370;10,08367;-0,04584;10,08367
0,1387;10,52249;-0,04583;10,52249
0,1404;10,93907;-0,04583;10,93907
0,1421;11,33912;-0,04582;11,33912
0,1440;11,77119;-0,04581;11,77119
0,1458;12,19603;-0,04579;12,19603
0,1477;12,61657;-0,04577;12,61657
0,1496;13,03467;-0,04575;13,03467
0,1515;13,45265;-0,04573;13,45265
0,1533;13,87319;-0,04570;13,87319
0,1552;14,29745;-0,04569;14,29745
0,1571;14,72474;-0,04566;14,72474
0,1590;15,15425;-0,04563;15,15425
0,1608;15,58561;-0,04560;15,58561
0,1627;16,01977;-0,04557;16,01977
0,1646;16,45695;-0,04554;16,45695
0,1665;16,89682;-0,04551;16,89682
0,1684;17,33831;-0,04547;17,33831
0,1702;17,78178;-0,04544;17,78178
0,1719;18,18323;-0,04539;18,18323
0,1736;18,58701;-0,04535;18,58701
0,1753;18,99311;-0,04531;18,99311
0,1770;19,40097;-0,04526;19,40097
0,1787;19,81033;-0,04521;19,81033
0,1804;20,22144;-0,04516;20,22144
0,1821;20,63488;-0,04511;20,63488
0,1838;21,05112;-0,04506;21,05112
0,1854;21,46956;-0,04506;21,46956
0,1871;21,88964;-0,04500;21,88964
0,1888;22,31122;-0,04494;22,31122
0,1905;22,73444;-0,04488;22,73444
0,1922;23,15999;-0,04482;23,15999
0,1939;23,58774;-0,04475;23,58774
0,1956;24,01724;-0,04469;24,01724
0,1973;24,44768;-0,04461;24,44768
0,1990;24,87869;-0,04454;24,87869
0,2006;25,31052;-0,04446;25,31052
0,2023;25,74352;-0,04446;25,74352
0,2040;26,17744;-0,04439;26,17744
0,2057;26,61149;-0,04431;26,61149
0,2074;27,04518;-0,04423;27,04518
0,2091;27,47794;-0,04415;27,47794
0,2108;27,91000;-0,04406;27,91000
0,2125;28,34137;-0,04397;28,34137
0,2142;28,77215;-0,04388;28,77215
0,2159;29,20154;-0,04379;29,20154
0,2175;29,62918;-0,04370;29,62918
0,2192;30,05472;-0,04370;30,05472
0,2209;30,47829;-0,04359;30,47829
0,2226;30,90023;-0,04350;30,90023
0,2243;31,32042;-0,04340;31,32042
0,2260;31,73863;-0,04330;31,73863
0,2277;32,15451;-0,04319;32,15451
0,2294;32,56795;-0,04308;32,56795
0,2311;32,97895;-0,04297;32,97895
0,2328;33,38785;-0,04286;33,38785
0,2344;33,79454;-0,04275;33,79454
0,2361;34,19866;-0,04275;34,19866
0,2378;34,60035;-0,04263;34,60035
0,2397;35,04359;-0,04252;35,04359
0,2416;35,48368;-0,04240;35,48368
0,2435;35,92075;-0,04228;35,92075
0,2453;36,35491;-0,04216;36,35491
0,2472;36,78604;-0,04203;36,78604
0,2491;37,21438;-0,04191;37,21438
0,2510;37,64004;-0,04178;37,64004
0,2528;38,06291;-0,04165;38,06291
0,2547;38,48310;-0,04152;38,48310
0,2566;38,90061;-0,04139;38,90061
0,2585;39,31556;-0,04126;39,31556
0,2603;39,72842;-0,04112;39,72842
0,2622;40,13942;-0,04098;40,13942
0,2641;40,54878;-0,04085;40,54878
0,2660;40,95652;-0,04071;40,95652
0,2679;41,36298;-0,04058;41,36298
0,2697;41,76815;-0,04043;41,76815
0,2716;42,17240;-0,04029;42,17240
0,2735;42,57571;-0,04015;42,57571
0,2754;42,97821;-0,04000;42,97821
0,2772;43,38001;-0,03985;43,38001
0,2791;43,78134;-0,03971;43,78134
0,2810;44,18233;-0,03957;44,18233
0,2829;44,58285;-0,03942;44,58285
0,2848;44,98325;-0,03926;44,98325
0,2866;45,38377;-0,03911;45,38377
0,2885;45,78464;-0,03896;45,78464
0,2904;46,18621;-0,03881;46,18621
0,2923;46,58859;-0,03866;46,58859
0,2941;46,99213;-0,03850;46,99213
0,2960;47,39684;-0,03834;47,39684
0,2979;47,80260;-0,03820;47,80260
0,2998;48,20976;-0,03804;48,20976
0,3017;48,61831;-0,03788;48,61831
0,3035;49,02837;-0,03772;49,02837
0,3054;49,44007;-0,03756;49,44007
0,3073;49,85316;-0,03740;49,85316
0,3092;50,26753;-0,03724;50,26753
0,3110;50,68283;-0,03708;50,68283
0,3129;51,09906;-0,03691;51,09906
0,3148;51,51611;-0,03675;51,51611
0,3167;51,93386;-0,03659;51,93386
0,3185;52,35219;-0,03642;52,35219
0,3204;52,77086;-0,03626;52,77086
0,3223;53,18942;-0,03610;53,18942
0,3242;53,60764;-0,03593;53,60764
0,3261;54,02515;-0,03576;54,02515
0,3279;54,44162;-0,03559;54,44162
0,3298;54,85680;-0,03542;54,85680
0,3317;55,27047;-0,03525;55,27047
0,3336;55,68217;-0,03509;55,68217
0,3354;56,09153;-0,03491;56,09153
0,3373;56,49822;-0,03474;56,49822
0,3392;56,90177;-0,03457;56,90177
0,3411;57,30229;-0,03440;57,30229
0,3431;57,73924;-0,03423;57,73924
0,3452;58,17235;-0,03388;58,17235
0,3473;58,60139;-0,03371;58,60139
0,3493;59,02635;-0,03354;59,02635
0,3514;59,44701;-0,03336;59,44701
0,3535;59,86312;-0,03319;59,86312
0,3555;60,27493;-0,03302;60,27493
0,3576;60,68244;-0,03285;60,68244
0,3597;61,08552;-0,03267;61,08552
0,3619;61,52026;-0,03249;61,52026
0,3642;61,94964;-0,03215;61,94964
0,3664;62,37391;-0,03198;62,37391
0,3687;62,79305;-0,03180;62,79305
0,3709;63,20754;-0,03162;63,20754
0,3732;63,61784;-0,03146;63,61784
0,3754;64,02464;-0,03111;64,02464
0,3777;64,42865;-0,03094;64,42865
0,3799;64,83034;-0,03076;64,83034
0,3824;65,26310;-0,03059;65,26310
0,3848;65,69353;-0,03024;65,69353
0,3873;66,12187;-0,03007;66,12187
0,3897;66,54835;-0,02990;66,54835
0,3921;66,97389;-0,02956;66,97389
0,3946;67,39886;-0,02938;67,39886
0,3970;67,82359;-0,02922;67,82359
0,3995;68,24832;-0,02905;68,24832
0,4019;68,67293;-0,02871;68,67293
0,4043;69,09754;-0,02854;69,09754
0,4068;69,52274;-0,02837;69,52274
0,4092;69,94910;-0,02803;69,94910
0,4117;70,37720;-0,02787;70,37720
0,4141;70,80729;-0,02770;70,80729
0,4165;71,24005;-0,02737;71,24005
0,4188;71,64197;-0,02720;71,64197
0,4211;72,04609;-0,02703;72,04609
0,4233;72,45243;-0,02687;72,45243
0,4256;72,86064;-0,02670;72,86064
0,4278;73,27082;-0,02637;73,27082
0,4301;73,68263;-0,02620;73,68263
0,4323;74,09630;-0,02603;74,09630
0,4346;74,51207;-0,02587;74,51207
0,4368;74,92970;-0,02571;74,92970
0,4391;75,34942;-0,02538;75,34942
0,4413;75,77054;-0,02521;75,77054
0,4436;76,19283;-0,02505;76,19283
0,4458;76,61535;-0,02488;76,61535
0,4481;77,03775;-0,02472;77,03775
0,4503;77,45957;-0,02439;77,45957
0,4526;77,88058;-0,02423;77,88058
0,4548;78,30042;-0,02407;78,30042
0,4571;78,71886;-0,02390;78,71886
0,4594;79,13591;-0,02374;79,13591
0,4616;79,55086;-0,02341;79,55086
0,4639;79,96337;-0,02326;79,96337
0,4661;80,37286;-0,02309;80,37286
0,4684;80,77850;-0,02293;80,77850
0,4706;81,18018;-0,02277;81,18018
0,4731;81,61061;-0,02244;81,61061
0,4755;82,03581;-0,02228;82,03581
0,4779;82,45565;-0,02213;82,45565
0,4804;82,87037;-0,02180;82,87037
0,4828;83,27974;-0,02165;83,27974
0,4853;83,68352;-0,02148;83,68352
0,4879;84,11209;-0,02116;84,11209
0,4905;84,53356;-0,02101;84,53356
0,4931;84,94805;-0,02084;84,94805
0,4958;85,35613;-0,02052;85,35613
0,4984;85,75863;-0,02037;85,75863
0,5012;86,18452;-0,02005;86,18452
0,5040;86,60553;-0,01990;86,60553
0,5069;87,02188;-0,01958;87,02188
0,5097;87,43357;-0,01943;87,43357
0,5125;87,84108;-0,01912;87,84108
0,5153;88,24544;-0,01896;88,24544
0,5181;88,64770;-0,01866;88,64770
0,5209;89,04880;-0,01851;89,04880
0,5237;89,44932;-0,01820;89,44932
0,5268;89,87592;-0,01804;89,87592
0,5298;90,30193;-0,01774;90,30193
0,5328;90,72759;-0,01759;90,72759
0,5358;91,15407;-0,01729;91,15407
0,5386;91,55540;-0,01699;91,55540
0,5414;91,95930;-0,01684;91,95930
0,5442;92,36645;-0,01654;92,36645
0,5470;92,77733;-0,01640;92,77733
0,5498;93,19217;-0,01610;93,19217
0,5527;93,61096;-0,01595;93,61096
0,5555;94,03418;-0,01566;94,03418
0,5583;94,46158;-0,01551;94,46158
0,5609;94,86478;-0,01536;94,86478
0,5636;95,27263;-0,01507;95,27263
0,5662;95,68514;-0,01492;95,68514
0,5688;96,10231;-0,01463;96,10231
0,5714;96,52389;-0,01448;96,52389
0,5741;96,94990;-0,01433;96,94990
0,5767;97,38010;-0,01405;97,38010
0,5791;97,78353;-0,01390;97,78353
0,5816;98,19046;-0,01375;98,19046
0,5840;98,60087;-0,01345;98,60087
0,5865;99,01408;-0,01330;99,01408
0,5889;99,42950;-0,01316;99,42950
0,5913;99,84654;-0,01286;99,84654
0,5938;100,26476;-0,01271;100,26476
0,5962;100,68367;-0,01256;100,68367
0,5987;101,10269;-0,01227;101,10269
0,6011;101,52102;-0,01212;101,52102
0,6035;101,93784;-0,01197;101,93784
0,6060;102,35197;-0,01182;102,35197
0,6084;102,76297;-0,01153;102,76297
0,6109;103,16919;-0,01138;103,16919
0,6135;103,59904;-0,01122;103,59904
0,6161;104,01900;-0,01093;104,01900
0,6187;104,42860;-0,01078;104,42860
0,6216;104,85566;-0,01047;104,85566
0,6244;105,27096;-0,01032;105,27096
0,6272;105,67579;-0,01002;105,67579
0,6302;106,09609;-0,00987;106,09609
0,6332;106,50371;-0,00956;106,50371
0,6364;106,92100;-0,00927;106,92100
0,6398;107,34375;-0,00911;107,34375
0,6432;107,74718;-0,00881;107,74718
0,6467;108,15398;-0,00850;108,15398
0,6505;108,56428;-0,00819;108,56428
0,6544;108,98098;-0,00789;108,98098
0,6584;109,38848;-0,00758;109,38848
0,6623;109,79075;-0,00727;109,79075
0,6664;110,20942;-0,00681;110,20942
0,6706;110,62822;-0,00649;110,62822
0,6745;111,03142;-0,00617;111,03142
0,6784;111,44241;-0,00585;111,44241
0,6822;111,84491;-0,00553;111,84491
0,6860;112,26091;-0,00520;112,26091
0,6895;112,66946;-0,00488;112,66946
0,6931;113,09093;-0,00455;113,09093
0,6965;113,50204;-0,00421;113,50204
0,6998;113,92398;-0,00404;113,92398
0,7030;114,33090;-0,00370;114,33090
0,7062;114,74423;-0,00334;114,74423
0,7094;115,16197;-0,00299;115,16197
0,7126;115,58146;-0,00282;115,58146
0,7158;116,00224;-0,00246;116,00224
0,7190;116,42557;-0,00209;116,42557
0,7220;116,82830;-0,00191;116,82830
0,7250;117,23534;-0,00153;117,23534
0,7280;117,64308;-0,00134;117,64308
0,7312;118,05186;-0,00096;118,05186
0,7351;118,46123;-0,00057;118,46123
0,7421;118,86605;0,00025;118,86605
1,2802;119,10024;0,60236;119,10024
1,3093;119,50146;0,63664;119,50146
1,3138;119,90314;0,64100;119,90314
1,3177;120,31065;0,64746;120,31065
1,3216;120,72886;0,65171;120,72886
1,3256;121,13066;0,65591;121,13066
1,3303;121,54107;0,66007;121,54107
1,3370;121,94660;0,66829;121,94660
1,3476;122,35212;0,67841;122,35212
1,3562;122,75276;0,68845;122,75276
1,3618;123,16422;0,69447;123,16422
1,3669;123,57591;0,70052;123,57591
1,3718;123,98959;0,70458;123,98959
1,3767;124,40256;0,71070;124,40256
1,3821;124,80692;0,71690;124,80692
1,3883;125,21245;0,72317;125,21245
1,3945;125,61634;0,72955;125,61634
1,4020;126,01942;0,73822;126,01942
1,6087;126,34079;1,34563;126,34079
1,6932;126,36896;1,95089;126,36896
1,7589;126,38619;2,56398;126,38619
1,8152;126,39980;3,16416;126,39980
1,8697;126,41331;3,78456;126,41331
1,9222;126,42378;4,39884;126,42378
1,9748;126,43496;5,00974;126,43496
2,0292;126,44252;5,62405;126,44252
2,0856;126,44881;6,22882;126,44881
2,1456;126,45963;6,83194;126,45963
2,2110;126,46801;7,42164;126,46801
2,2113;126,46801;7,43818;126,46801
2,2226;126,46720;7,53647;126,46720
