Part protocol
Network name;Part_OP10_MP-002_2020-08-26_15-18-45_0023_OK.csv
Protocol version;2.01.00

Index;Result information;Process values - curve related;Process values - EO related;Evaluation objects settings;Switch signal settings;Device information;Channel-X settings;Channel-Y settings;Cycle control settings;Evaluation settings;Trigger Y settings;Block settings;Measuring curve;Measuring points;Sequence;
Line;10;30;40;70;100;120;150;190;220;240;250;260;270;280;570;



Result information
Date;2020/08/26
Time;15:18:45
Cycle number;23
Total result;OK
Triggered switch signals
Part serial number;0023
Measuring program name;D57-Right
Measuring program number;2
Zero X offset;0,00;mm
Tara Y offset;0,0;kN









Process values - curve related
Block X;116,11;mm;XMIN-X;-0,02;mm
Block Y;4,7;kN;XMIN-Y;0,0;kN
Ref X;-;mm;XMAX-X;116,11;mm
Peak-peak X;116,13;mm;XMAX-Y;4,7;kN
Peak-peak Y;4,7;kN;YMIN-X;0,39;mm
;;;YMIN-Y;0,0;kN
;;;YMAX-X;116,11;mm
;;;YMAX-Y;4,7;kN

Process values - EO related;Result;Entry;Exit;XMIN-X;XMIN-Y;XMAX-X;XMAX-Y;YMIN-Y;YMIN-X;YMAX-Y;YMAX-X
;;;;mm;kN;mm;kN;kN;mm;kN;mm
EO-01;OK;0,7;0,7;;;;;0,7;115,00;0,7;115,30;;;;;;
EO-02;OK;;116,09;116,07;2,3;116,09;3,1;2,3;116,07;;;;;;;;
EO-03;None;
EO-04;None;
























Evaluation objects settings;Reaction;X reference;Y-Reference;XMin;XMax;YMin;YMax;Entry;Exit;Curve part;Catch zone X;Catch zone Y
EO-01;UNI-BOX;ABSOLUTE;-;115,00;115,50;0,4;2,0;LEFT;RIGHT;ANY;+50%;+50%
EO-02;UNI-BOX;ABSOLUTE;-;115,40;117,10;2,3;3,3;ANY;ABOVE;ANY;+50%;+50%
EO-03;OFF
EO-04;OFF

























Switch signal settings;Channel;Threshold at;;Trigger from;Reference;Latch until
Type S1;OFF
Type S2;OFF

















Device information
Device type;maXYmos BL
Device type number;5867B1011
Device serial number;5182443
Firmware version;2.3.2 (r22473-BL_v2.3.x)
-
-
-
-
-
IP Address;10.0.0.18
Network name;OP10
Profibus address;10
-
-
-
Station name;OP10
Company name;
Comment;











Channel-X settings
Use the settings from global setup;True
Sensor-X type;Â±10V
Unit;mm
Used range from;0,00;mm
Used range to;200,00;mm
Decimal places;XXXX.XX
Scaling by;Teach-In
Point 1;0,00;mm;-0,350;%
Point 2;200,00;mm;10,000;%
Invert signal;FALSE
Filter;20 Hz
Test point;0,00;mm
Tolerance;2,00;mm
Enable sensor test by dig-input;FALSE
Zoom from;100,00;mm
Zoom to;120,00;mm























Channel-Y settings
Use the settings from global setup;True
Sensor-Y type;Strain Gage
Unit;kN
Used range from;0,0;kN
Used range to;20,0;kN
Decimal places;XXXXX.X
Scaling by;Teach-In
Point 1;0,0;kN;-0,01562;%
Point 2;20,0;kN;2,00000;%
Invert signal;FALSE
Filter;1 Hz
Piezo reset;-
Test point;0,0;kN
Tolerance;0,1;kN
Enable sensor test by dig-input;FALSE
Zoom from;0,0;kN
Zoom to;5,0;kN












Cycle control settings
Use the settings from global setup;True
Measuring function;Y (X)
Delta-X;Automatic
START condition;Dig-Input
STOP condition;Dig-Input
Cycle time out;20,00;s
Turning point RIGHT;YMAX
Turning point LEFT;NONE
Cut curve at;NONE










Evaluation settings
Capture only first NOK-EO for statistics;False
Hysteresis-X;0,0;%
Hysteresis-Y;100,0;%






Trigger Y settings
Threshold;1,8;kN
Value X at TRIGGER Y;0,00;mm
Approach from;BELOW






Block settings
Value X at block;XMAX
Block at;0,00;mm







Measuring curve
Number of measuring points;286
Ref. Graph on;ABSOLUTE
Curve segments;0;285;284;286;


Time;X(ABSOLUTE);Y;X (ABSOLUTE)


s;mm;kN;mm
0,0000;-0,01883;-0,03533;-0,01883
0,1099;0,39100;-0,03534;0,39100
0,1131;0,79536;-0,03533;0,79536
0,1153;1,20182;-0,03533;1,20182
0,1172;1,62259;-0,03533;1,62259
0,1189;2,06490;-0,03532;2,06490
0,1204;2,50464;-0,03531;2,50464
0,1217;2,91866;-0,03531;2,91866
0,1230;3,35166;-0,03531;3,35166
0,1243;3,79559;-0,03529;3,79559
0,1256;4,24337;-0,03528;4,24337
0,1270;4,69022;-0,03528;4,69022
0,1283;5,13241;-0,03527;5,13241
0,1296;5,56715;-0,03525;5,56715
0,1309;5,99234;-0,03525;5,99234
0,1322;6,40671;-0,03523;6,40671
0,1335;6,81026;-0,03522;6,81026
0,1350;7,25990;-0,03519;7,25990
0,1365;7,69941;-0,03519;7,69941
0,1380;8,13101;-0,03516;8,13101
0,1395;8,55679;-0,03513;8,55679
0,1410;8,97849;-0,03510;8,97849
0,1425;9,39798;-0,03507;9,39798
0,1440;9,81654;-0,03507;9,81654
0,1455;10,23534;-0,03503;10,23534
0,1470;10,65495;-0,03498;10,65495
0,1485;11,07560;-0,03494;11,07560
0,1501;11,49707;-0,03488;11,49707
0,1516;11,91913;-0,03488;11,91913
0,1531;12,34130;-0,03483;12,34130
0,1546;12,76265;-0,03477;12,76265
0,1561;13,18261;-0,03471;13,18261
0,1576;13,60036;-0,03463;13,60036
0,1591;14,01496;-0,03463;14,01496
0,1606;14,42595;-0,03456;14,42595
0,1621;14,83253;-0,03448;14,83253
0,1636;15,23444;-0,03440;15,23444
0,1653;15,68047;-0,03431;15,68047
0,1669;16,11987;-0,03422;16,11987
0,1686;16,55240;-0,03422;16,55240
0,1703;16,97806;-0,03412;16,97806
0,1720;17,39662;-0,03402;17,39662
0,1737;17,80832;-0,03391;17,80832
0,1754;18,21349;-0,03380;18,21349
0,1773;18,65638;-0,03368;18,65638
0,1792;19,09263;-0,03356;19,09263
0,1810;19,52295;-0,03343;19,52295
0,1829;19,94803;-0,03329;19,94803
0,1848;20,36845;-0,03315;20,36845
0,1867;20,78469;-0,03300;20,78469
0,1885;21,19685;-0,03286;21,19685
0,1904;21,60551;-0,03270;21,60551
0,1923;22,01092;-0,03253;22,01092
0,1942;22,41354;-0,03236;22,41354
0,1960;22,81394;-0,03219;22,81394
0,1981;23,25206;-0,03201;23,25206
0,2002;23,68819;-0,03182;23,68819
0,2022;24,12282;-0,03163;24,12282
0,2043;24,55616;-0,03143;24,55616
0,2064;24,98846;-0,03101;24,98846
0,2084;25,42040;-0,03080;25,42040
0,2105;25,85223;-0,03058;25,85223
0,2126;26,28453;-0,03035;26,28453
0,2146;26,71752;-0,03012;26,71752
0,2167;27,15157;-0,02987;27,15157
0,2188;27,58712;-0,02962;27,58712
0,2208;28,02454;-0,02937;28,02454
0,2229;28,46417;-0,02911;28,46417
0,2248;28,86573;-0,02884;28,86573
0,2266;29,26905;-0,02857;29,26905
0,2285;29,67422;-0,02829;29,67422
0,2304;30,08126;-0,02800;30,08126
0,2323;30,49004;-0,02772;30,49004
0,2342;30,90081;-0,02741;30,90081
0,2360;31,31355;-0,02711;31,31355
0,2379;31,72850;-0,02680;31,72850
0,2398;32,14555;-0,02649;32,14555
0,2417;32,56481;-0,02616;32,56481
0,2435;32,98616;-0,02583;32,98616
0,2454;33,40938;-0,02550;33,40938
0,2473;33,83469;-0,02515;33,83469
0,2492;34,26175;-0,02481;34,26175
0,2511;34,69044;-0,02445;34,69044
0,2529;35,12041;-0,02409;35,12041
0,2548;35,55131;-0,02373;35,55131
0,2567;35,98302;-0,02336;35,98302
0,2586;36,41508;-0,02298;36,41508
0,2604;36,84726;-0,02259;36,84726
0,2623;37,27944;-0,02220;37,27944
0,2642;37,71127;-0,02180;37,71127
0,2661;38,14264;-0,02140;38,14264
0,2680;38,57342;-0,02100;38,57342
0,2698;39,00327;-0,02058;39,00327
0,2717;39,43208;-0,02016;39,43208
0,2736;39,86007;-0,01974;39,86007
0,2755;40,28677;-0,01930;40,28677
0,2773;40,71209;-0,01887;40,71209
0,2792;41,13565;-0,01843;41,13565
0,2811;41,55712;-0,01798;41,55712
0,2830;41,97650;-0,01753;41,97650
0,2848;42,39355;-0,01707;42,39355
0,2867;42,80850;-0,01661;42,80850
0,2886;43,22101;-0,01615;43,22101
0,2905;43,63119;-0,01567;43,63119
0,2924;44,03893;-0,01519;44,03893
0,2942;44,44375;-0,01471;44,44375
0,2961;44,84555;-0,01422;44,84555
0,2982;45,28413;-0,01373;45,28413
0,3002;45,71911;-0,01274;45,71911
0,3023;46,15047;-0,01223;46,15047
0,3044;46,57835;-0,01172;46,57835
0,3064;47,00284;-0,01121;47,00284
0,3085;47,42385;-0,01069;47,42385
0,3106;47,84159;-0,01018;47,84159
0,3126;48,25608;-0,00965;48,25608
0,3147;48,66766;-0,00912;48,66766
0,3168;49,07644;-0,00859;49,07644
0,3188;49,48290;-0,00806;49,48290
0,3209;49,88679;-0,00697;49,88679
0,3230;50,28836;-0,00643;50,28836
0,3252;50,72380;-0,00588;50,72380
0,3275;51,15656;-0,00533;51,15656
0,3297;51,58700;-0,00477;51,58700
0,3320;52,01510;-0,00421;52,01510
0,3342;52,44100;-0,00309;52,44100
0,3365;52,86491;-0,00253;52,86491
0,3387;53,28708;-0,00196;53,28708
0,3410;53,70750;-0,00139;53,70750
0,3432;54,12630;-0,00082;54,12630
0,3455;54,54370;0,00033;54,54370
0,3477;54,95993;0,00091;54,95993
0,3500;55,37511;0,00149;55,37511
0,3522;55,78972;0,00207;55,78972
0,3545;56,20362;0,00265;56,20362
0,3568;56,61683;0,00383;56,61683
0,3590;57,02946;0,00442;57,02946
0,3613;57,44161;0,00501;57,44161
0,3635;57,85377;0,00560;57,85377
0,3658;58,26605;0,00619;58,26605
0,3680;58,67867;0,00738;58,67867
0,3703;59,09165;0,00798;59,09165
0,3725;59,50509;0,00858;59,50509
0,3748;59,91876;0,00917;59,91876
0,3770;60,33255;0,00977;60,33255
0,3793;60,74646;0,01097;60,74646
0,3815;61,16083;0,01157;61,16083
0,3838;61,57578;0,01217;61,57578
0,3860;61,99120;0,01277;61,99120
0,3883;62,40697;0,01336;62,40697
0,3905;62,82273;0,01457;62,82273
0,3928;63,23838;0,01517;63,23838
0,3951;63,65380;0,01577;63,65380
0,3973;64,06887;0,01637;64,06887
0,3996;64,48383;0,01697;64,48383
0,4018;64,89855;0,01817;64,89855
0,4041;65,31292;0,01877;65,31292
0,4063;65,72671;0,01937;65,72671
0,4086;66,13980;0,01996;66,13980
0,4108;66,55184;0,02057;66,55184
0,4131;66,96272;0,02176;66,96272
0,4153;67,37232;0,02235;67,37232
0,4176;67,78075;0,02295;67,78075
0,4198;68,18802;0,02355;68,18802
0,4221;68,59390;0,02414;68,59390
0,4243;68,99872;0,02532;68,99872
0,4266;69,40227;0,02591;69,40227
0,4288;69,80488;0,02650;69,80488
0,4311;70,20633;0,02708;70,20633
0,4334;70,60651;0,02767;70,60651
0,4358;71,03868;0,02883;71,03868
0,4382;71,46900;0,02942;71,46900
0,4407;71,89734;0,02999;71,89734
0,4431;72,32393;0,03115;72,32393
0,4456;72,74913;0,03172;72,74913
0,4480;73,17281;0,03229;73,17281
0,4504;73,59510;0,03343;73,59510
0,4529;74,01599;0,03400;74,01599
0,4553;74,43525;0,03456;74,43525
0,4578;74,85288;0,03513;74,85288
0,4602;75,26853;0,03625;75,26853
0,4626;75,68197;0,03680;75,68197
0,4651;76,09308;0,03736;76,09308
0,4675;76,50198;0,03846;76,50198
0,4700;76,90902;0,03901;76,90902
0,4724;77,31477;0,03955;77,31477
0,4748;77,71925;0,04064;77,71925
0,4773;78,12245;0,04117;78,12245
0,4797;78,52413;0,04171;78,52413
0,4824;78,95480;0,04277;78,95480
0,4850;79,38337;0,04330;79,38337
0,4876;79,81020;0,04383;79,81020
0,4902;80,23539;0,04487;80,23539
0,4929;80,65896;0,04539;80,65896
0,4955;81,08113;0,04641;81,08113
0,4981;81,50178;0,04693;81,50178
0,5008;81,92093;0,04743;81,92093
0,5034;82,33879;0,04844;82,33879
0,5060;82,75537;0,04894;82,75537
0,5086;83,17091;0,04993;83,17091
0,5113;83,58539;0,05042;83,58539
0,5139;83,99907;0,05090;83,99907
0,5165;84,41227;0,05187;84,41227
0,5191;84,82490;0,05235;84,82490
0,5218;85,23729;0,05330;85,23729
0,5244;85,64957;0,05377;85,64957
0,5270;86,06184;0,05423;86,06184
0,5297;86,47423;0,05516;86,47423
0,5323;86,88674;0,05562;86,88674
0,5349;87,29948;0,05653;87,29948
0,5375;87,71258;0,05698;87,71258
0,5402;88,12613;0,05743;88,12613
0,5428;88,53980;0,05832;88,53980
0,5454;88,95324;0,05875;88,95324
0,5481;89,36610;0,05962;89,36610
0,5507;89,77803;0,06005;89,77803
0,5533;90,18902;0,06048;90,18902
0,5559;90,59874;0,06132;90,59874
0,5586;91,00741;0,06174;91,00741
0,5612;91,41491;0,06257;91,41491
0,5638;91,82125;0,06298;91,82125
0,5665;92,22631;0,06339;92,22631
0,5691;92,63009;0,06420;92,63009
0,5717;93,03224;0,06460;93,03224
0,5743;93,43264;0,06539;93,43264
0,5772;93,85958;0,06578;93,85958
0,5800;94,28478;0,06655;94,28478
0,5828;94,70823;0,06693;94,70823
0,5856;95,13028;0,06769;95,13028
0,5884;95,55105;0,06807;95,55105
0,5912;95,97101;0,06881;95,97101
0,5941;96,38969;0,06918;96,38969
0,5969;96,80709;0,06991;96,80709
0,5997;97,22332;0,07027;97,22332
0,6025;97,63804;0,07098;97,63804
0,6053;98,05160;0,07133;98,05160
0,6081;98,46422;0,07203;98,46422
0,6110;98,87591;0,07237;98,87591
0,6138;99,28656;0,07305;99,28656
0,6166;99,69581;0,07339;99,69581
0,6194;100,10343;0,07405;100,10343
0,6222;100,50965;0,07439;100,50965
0,6250;100,91448;0,07503;100,91448
0,6279;101,31826;0,07536;101,31826
0,6307;101,72122;0,07600;101,72122
0,6335;102,12302;0,07631;102,12302
0,6363;102,52366;0,07693;102,52366
0,6393;102,94920;0,07725;102,94920
0,6423;103,37335;0,07786;103,37335
0,6453;103,79610;0,07815;103,79610
0,6483;104,21757;0,07876;104,21757
0,6513;104,63753;0,07934;104,63753
0,6543;105,05574;0,07963;105,05574
0,6573;105,47186;0,08021;105,47186
0,6603;105,88577;0,08050;105,88577
0,6633;106,29665;0,08106;106,29665
0,6663;106,70275;0,08162;106,70275
0,6695;107,12550;0,08189;107,12550
0,6727;107,53638;0,08244;107,53638
0,6761;107,95588;0,08299;107,95588
0,6795;108,35663;0,08351;108,35663
0,6832;108,77426;0,08405;108,77426
0,6874;109,18898;0,08457;109,18898
0,6922;109,59858;0,08509;109,59858
0,6994;110,00457;0,08612;110,00457
0,7580;110,40509;0,09513;110,40509
0,7702;110,81259;0,09787;110,81259
0,7769;111,22033;0,09917;111,22033
0,7824;111,63272;0,10056;111,63272
0,7872;112,04465;0,10205;112,04465
0,7921;112,45448;0,10364;112,45448
0,7983;112,85546;0,10533;112,85546
1,2729;113,25819;0,66703;113,25819
1,2808;113,66721;0,67532;113,66721
1,2855;114,07530;0,67940;114,07530
1,2898;114,49095;0,68542;114,49095
1,2940;114,89123;0,68939;114,89123
1,2986;115,29920;0,69331;115,29920
1,3056;115,70484;0,70107;115,70484
1,4962;116,03995;1,30279;116,03995
1,5600;116,06160;1,90331;116,06160
1,6088;116,07766;2,50425;116,07766
1,6520;116,08860;3,10907;116,08860
1,6933;116,09757;3,72563;116,09757
1,7327;116,10641;4,32748;116,10641
1,7571;116,10944;4,69892;116,10944
1,7588;116,11002;4,69892;116,11002
