Part protocol
Network name;Part_OP10_MP-001_2020-08-26_15-46-03_0030_OK.csv
Protocol version;2.01.00

Index;Result information;Process values - curve related;Process values - EO related;Evaluation objects settings;Switch signal settings;Device information;Channel-X settings;Channel-Y settings;Cycle control settings;Evaluation settings;Trigger Y settings;Block settings;Measuring curve;Measuring points;Sequence;
Line;10;30;40;70;100;120;150;190;220;240;250;260;270;280;600;



Result information
Date;2020/08/26
Time;15:46:03
Cycle number;30
Total result;OK
Triggered switch signals
Part serial number;0030
Measuring program name;D57-Left
Measuring program number;1
Zero X offset;0,00;mm
Tara Y offset;0,0;kN









Process values - curve related
Block X;126,37;mm;XMIN-X;-0,13;mm
Block Y;7,5;kN;XMIN-Y;0,0;kN
Ref X;-;mm;XMAX-X;126,37;mm
Peak-peak X;126,51;mm;XMAX-Y;7,5;kN
Peak-peak Y;7,5;kN;YMIN-X;0,28;mm
;;;YMIN-Y;0,0;kN
;;;YMAX-X;126,37;mm
;;;YMAX-Y;7,5;kN

Process values - EO related;Result;Entry;Exit;XMIN-X;XMIN-Y;XMAX-X;XMAX-Y;YMIN-Y;YMIN-X;YMAX-Y;YMAX-X
;;;;mm;kN;mm;kN;kN;mm;kN;mm
EO-01;OK;0,8;0,8;;;;;0,8;124,50;0,8;125,43;;;;;;
EO-02;OK;126,33;126,35;126,33;4,5;126,34;5,0;;;;;;;;;;
EO-03;None;
EO-04;None;
























Evaluation objects settings;Reaction;X reference;Y-Reference;XMin;XMax;YMin;YMax;Entry;Exit;Curve part;Catch zone X;Catch zone Y
EO-01;UNI-BOX;ABSOLUTE;-;124,50;125,70;0,5;3,0;LEFT;RIGHT;ANY;+50%;+50%
EO-02;UNI-BOX;ABSOLUTE;-;125,80;127,20;4,5;5,5;BELOW;ABOVE;ANY;+50%;+50%
EO-03;OFF
EO-04;OFF

























Switch signal settings;Channel;Threshold at;;Trigger from;Reference;Latch until
Type S1;OFF
Type S2;OFF

















Device information
Device type;maXYmos BL
Device type number;5867B1011
Device serial number;5182443
Firmware version;2.3.2 (r22473-BL_v2.3.x)
-
-
-
-
-
IP Address;10.0.0.18
Network name;OP10
Profibus address;10
-
-
-
Station name;OP10
Company name;
Comment;











Channel-X settings
Use the settings from global setup;True
Sensor-X type;Â±10V
Unit;mm
Used range from;0,00;mm
Used range to;200,00;mm
Decimal places;XXXX.XX
Scaling by;Teach-In
Point 1;0,00;mm;-0,350;%
Point 2;200,00;mm;10,000;%
Invert signal;FALSE
Filter;20 Hz
Test point;0,00;mm
Tolerance;2,00;mm
Enable sensor test by dig-input;FALSE
Zoom from;110,00;mm
Zoom to;133,11;mm























Channel-Y settings
Use the settings from global setup;True
Sensor-Y type;Strain Gage
Unit;kN
Used range from;0,0;kN
Used range to;20,0;kN
Decimal places;XXXXX.X
Scaling by;Teach-In
Point 1;0,0;kN;-0,01562;%
Point 2;20,0;kN;2,00000;%
Invert signal;FALSE
Filter;1 Hz
Piezo reset;-
Test point;0,0;kN
Tolerance;0,1;kN
Enable sensor test by dig-input;FALSE
Zoom from;0,0;kN
Zoom to;6,0;kN












Cycle control settings
Use the settings from global setup;True
Measuring function;Y (X)
Delta-X;Automatic
START condition;Dig-Input
STOP condition;Dig-Input
Cycle time out;20,00;s
Turning point RIGHT;YMAX
Turning point LEFT;NONE
Cut curve at;NONE










Evaluation settings
Capture only first NOK-EO for statistics;False
Hysteresis-X;0,0;%
Hysteresis-Y;100,0;%






Trigger Y settings
Threshold;1,9;kN
Value X at TRIGGER Y;0,00;mm
Approach from;BELOW






Block settings
Value X at block;XMAX
Block at;0,00;mm







Measuring curve
Number of measuring points;314
Ref. Graph on;ABSOLUTE
Curve segments;0;314;313;314;


Time;X(ABSOLUTE);Y;X (ABSOLUTE)


s;mm;kN;mm
0,0000;-0,13360;-0,03475;-0,13360
0,0921;0,27763;-0,03480;0,27763
0,0961;0,69037;-0,03480;0,69037
0,0989;1,10335;-0,03480;1,10335
0,1011;1,50748;-0,03480;1,50748
0,1032;1,93605;-0,03480;1,93605
0,1051;2,37405;-0,03480;2,37405
0,1068;2,80739;-0,03480;2,80739
0,1083;3,22339;-0,03479;3,22339
0,1098;3,66767;-0,03479;3,66767
0,1111;4,07949;-0,03479;4,07949
0,1124;4,51260;-0,03479;4,51260
0,1137;4,96619;-0,03479;4,96619
0,1149;5,36962;-0,03478;5,36962
0,1160;5,78318;-0,03478;5,78318
0,1171;6,20267;-0,03478;6,20267
0,1182;6,62309;-0,03477;6,62309
0,1194;7,03944;-0,03477;7,03944
0,1205;7,44788;-0,03476;7,44788
0,1218;7,91079;-0,03476;7,91079
0,1231;8,35693;-0,03476;8,35693
0,1244;8,78574;-0,03475;8,78574
0,1257;9,19720;-0,03474;9,19720
0,1272;9,64626;-0,03473;9,64626
0,1287;10,07296;-0,03473;10,07296
0,1302;10,47872;-0,03472;10,47872
0,1319;10,91393;-0,03471;10,91393
0,1336;11,33296;-0,03469;11,33296
0,1353;11,74244;-0,03467;11,74244
0,1370;12,14680;-0,03465;12,14680
0,1387;12,54895;-0,03463;12,54895
0,1404;12,95040;-0,03461;12,95040
0,1421;13,35348;-0,03459;13,35348
0,1438;13,76052;-0,03459;13,76052
0,1455;14,17291;-0,03457;14,17291
0,1471;14,59054;-0,03454;14,59054
0,1488;15,01224;-0,03451;15,01224
0,1505;15,43709;-0,03448;15,43709
0,1522;15,86531;-0,03445;15,86531
0,1539;16,29714;-0,03441;16,29714
0,1556;16,73235;-0,03437;16,73235
0,1573;17,17000;-0,03434;17,17000
0,1590;17,60905;-0,03430;17,60905
0,1607;18,04926;-0,03430;18,04926
0,1623;18,49098;-0,03425;18,49098
0,1640;18,93480;-0,03421;18,93480
0,1657;19,38002;-0,03416;19,38002
0,1674;19,82605;-0,03411;19,82605
0,1691;20,27243;-0,03406;20,27243
0,1708;20,71950;-0,03400;20,71950
0,1725;21,16810;-0,03395;21,16810
0,1740;21,56850;-0,03389;21,56850
0,1755;21,97007;-0,03389;21,97007
0,1770;22,37222;-0,03383;22,37222
0,1785;22,77425;-0,03376;22,77425
0,1800;23,17605;-0,03370;23,17605
0,1815;23,57808;-0,03362;23,57808
0,1830;23,98070;-0,03362;23,98070
0,1845;24,38401;-0,03356;24,38401
0,1860;24,78767;-0,03348;24,78767
0,1875;25,19099;-0,03341;25,19099
0,1890;25,59372;-0,03333;25,59372
0,1905;25,99587;-0,03333;25,99587
0,1920;26,39790;-0,03324;26,39790
0,1935;26,80016;-0,03316;26,80016
0,1950;27,20255;-0,03308;27,20255
0,1965;27,60458;-0,03299;27,60458
0,1980;28,00557;-0,03299;28,00557
0,1997;28,45497;-0,03290;28,45497
0,2014;28,90263;-0,03281;28,90263
0,2031;29,34890;-0,03272;29,34890
0,2048;29,79376;-0,03261;29,79376
0,2065;30,23665;-0,03251;30,23665
0,2082;30,67733;-0,03242;30,67733
0,2098;31,11556;-0,03231;31,11556
0,2115;31,55135;-0,03221;31,55135
0,2132;31,98504;-0,03221;31,98504
0,2149;32,41675;-0,03210;32,41675
0,2166;32,84637;-0,03199;32,84637
0,2183;33,27366;-0,03187;33,27366
0,2200;33,69863;-0,03176;33,69863
0,2217;34,12114;-0,03164;34,12114
0,2234;34,54157;-0,03153;34,54157
0,2251;34,96001;-0,03141;34,96001
0,2267;35,37613;-0,03129;35,37613
0,2284;35,79015;-0,03116;35,79015
0,2301;36,20185;-0,03116;36,20185
0,2318;36,61133;-0,03104;36,61133
0,2335;37,01860;-0,03091;37,01860
0,2352;37,42389;-0,03078;37,42389
0,2369;37,82709;-0,03065;37,82709
0,2386;38,22842;-0,03052;38,22842
0,2404;38,67201;-0,03038;38,67201
0,2423;39,11315;-0,03025;39,11315
0,2442;39,55208;-0,03012;39,55208
0,2461;39,98915;-0,02998;39,98915
0,2480;40,42459;-0,02984;40,42459
0,2498;40,85863;-0,02970;40,85863
0,2517;41,29104;-0,02956;41,29104
0,2536;41,72194;-0,02941;41,72194
0,2555;42,15098;-0,02927;42,15098
0,2573;42,57815;-0,02912;42,57815
0,2592;43,00323;-0,02898;43,00323
0,2611;43,42622;-0,02883;43,42622
0,2630;43,84699;-0,02868;43,84699
0,2649;44,26590;-0,02853;44,26590
0,2667;44,68295;-0,02837;44,68295
0,2686;45,09848;-0,02823;45,09848
0,2705;45,51262;-0,02807;45,51262
0,2724;45,92548;-0,02792;45,92548
0,2742;46,33694;-0,02776;46,33694
0,2761;46,74700;-0,02761;46,74700
0,2780;47,15532;-0,02745;47,15532
0,2799;47,56189;-0,02729;47,56189
0,2818;47,96660;-0,02713;47,96660
0,2836;48,36980;-0,02698;48,36980
0,2855;48,77172;-0,02682;48,77172
0,2874;49,17247;-0,02666;49,17247
0,2894;49,61233;-0,02650;49,61233
0,2915;50,05115;-0,02634;50,05115
0,2936;50,48903;-0,02617;50,48903
0,2956;50,92586;-0,02601;50,92586
0,2977;51,36165;-0,02585;51,36165
0,2998;51,79616;-0,02552;51,79616
0,3018;52,22974;-0,02536;52,22974
0,3039;52,66250;-0,02519;52,66250
0,3060;53,09433;-0,02502;53,09433
0,3080;53,52534;-0,02486;53,52534
0,3101;53,95543;-0,02470;53,95543
0,3122;54,38435;-0,02453;54,38435
0,3142;54,81199;-0,02437;54,81199
0,3163;55,23823;-0,02420;55,23823
0,3184;55,66308;-0,02402;55,66308
0,3204;56,08653;-0,02369;56,08653
0,3225;56,50858;-0,02352;56,50858
0,3246;56,92924;-0,02336;56,92924
0,3266;57,34873;-0,02319;57,34873
0,3287;57,76729;-0,02302;57,76729
0,3308;58,18504;-0,02285;58,18504
0,3328;58,60185;-0,02268;58,60185
0,3349;59,01762;-0,02252;59,01762
0,3369;59,43188;-0,02235;59,43188
0,3390;59,84473;-0,02217;59,84473
0,3411;60,25608;-0,02184;60,25608
0,3431;60,66579;-0,02166;60,66579
0,3452;61,07423;-0,02150;61,07423
0,3473;61,48150;-0,02133;61,48150
0,3493;61,88795;-0,02116;61,88795
0,3514;62,29336;-0,02099;62,29336
0,3535;62,69772;-0,02082;62,69772
0,3555;63,10104;-0,02065;63,10104
0,3576;63,50319;-0,02048;63,50319
0,3597;63,90417;-0,02031;63,90417
0,3619;64,34008;-0,01998;64,34008
0,3642;64,77423;-0,01980;64,77423
0,3664;65,20676;-0,01964;65,20676
0,3687;65,63766;-0,01947;65,63766
0,3709;66,06682;-0,01930;66,06682
0,3732;66,49457;-0,01896;66,49457
0,3754;66,92140;-0,01879;66,92140
0,3777;67,34741;-0,01863;67,34741
0,3799;67,77237;-0,01846;67,77237
0,3822;68,19629;-0,01829;68,19629
0,3844;68,61915;-0,01795;68,61915
0,3867;69,04074;-0,01778;69,04074
0,3890;69,46105;-0,01762;69,46105
0,3912;69,88054;-0,01745;69,88054
0,3935;70,29934;-0,01729;70,29934
0,3957;70,71731;-0,01695;70,71731
0,3980;71,13460;-0,01679;71,13460
0,4002;71,55083;-0,01662;71,55083
0,4025;71,96555;-0,01645;71,96555
0,4047;72,37887;-0,01629;72,37887
0,4070;72,79068;-0,01596;72,79068
0,4092;73,20156;-0,01579;73,20156
0,4115;73,61174;-0,01563;73,61174
0,4137;74,02157;-0,01546;74,02157
0,4160;74,43106;-0,01529;74,43106
0,4182;74,84019;-0,01497;74,84019
0,4205;75,24851;-0,01480;75,24851
0,4227;75,65578;-0,01464;75,65578
0,4250;76,06188;-0,01448;76,06188
0,4273;76,46671;-0,01431;76,46671
0,4295;76,87037;-0,01399;76,87037
0,4318;77,27322;-0,01382;77,27322
0,4340;77,67525;-0,01367;77,67525
0,4363;78,07636;-0,01350;78,07636
0,4385;78,47653;-0,01334;78,47653
0,4410;78,90917;-0,01302;78,90917
0,4434;79,34077;-0,01285;79,34077
0,4458;79,77144;-0,01269;79,77144
0,4483;80,20094;-0,01237;80,20094
0,4507;80,62893;-0,01221;80,62893
0,4532;81,05540;-0,01205;81,05540
0,4556;81,48025;-0,01173;81,48025
0,4580;81,90335;-0,01156;81,90335
0,4605;82,32494;-0,01141;82,32494
0,4629;82,74501;-0,01125;82,74501
0,4654;83,16357;-0,01093;83,16357
0,4678;83,58039;-0,01077;83,58039
0,4702;83,99569;-0,01061;83,99569
0,4727;84,40925;-0,01030;84,40925
0,4751;84,82129;-0,01014;84,82129
0,4776;85,23205;-0,00998;85,23205
0,4800;85,64188;-0,00967;85,64188
0,4824;86,05067;-0,00951;86,05067
0,4849;86,45840;-0,00935;86,45840
0,4873;86,86498;-0,00919;86,86498
0,4898;87,26980;-0,00888;87,26980
0,4922;87,67277;-0,00872;87,67277
0,4946;88,07410;-0,00857;88,07410
0,4973;88,50430;-0,00825;88,50430
0,4999;88,93276;-0,00809;88,93276
0,5025;89,35947;-0,00779;89,35947
0,5052;89,78490;-0,00763;89,78490
0,5078;90,20916;-0,00747;90,20916
0,5104;90,63226;-0,00717;90,63226
0,5130;91,05431;-0,00701;91,05431
0,5157;91,47544;-0,00670;91,47544
0,5183;91,89563;-0,00655;91,89563
0,5209;92,31500;-0,00639;92,31500
0,5236;92,73380;-0,00608;92,73380
0,5262;93,15189;-0,00593;93,15189
0,5288;93,56882;-0,00562;93,56882
0,5314;93,98447;-0,00547;93,98447
0,5341;94,39861;-0,00532;94,39861
0,5367;94,81124;-0,00501;94,81124
0,5393;95,22235;-0,00485;95,22235
0,5420;95,63206;-0,00456;95,63206
0,5446;96,03992;-0,00440;96,03992
0,5472;96,44614;-0,00425;96,44614
0,5498;96,85132;-0,00395;96,85132
0,5525;97,25591;-0,00379;97,25591
0,5551;97,66039;-0,00349;97,66039
0,5577;98,06486;-0,00333;98,06486
0,5604;98,46969;-0,00319;98,46969
0,5630;98,87475;-0,00288;98,87475
0,5656;99,27981;-0,00273;99,27981
0,5682;99,68429;-0,00243;99,68429
0,5709;100,08772;-0,00228;100,08772
0,5735;100,48998;-0,00213;100,48998
0,5761;100,89097;-0,00183;100,89097
0,5789;101,31919;-0,00168;101,31919
0,5818;101,74590;-0,00138;101,74590
0,5846;102,17121;-0,00122;102,17121
0,5874;102,59536;-0,00093;102,59536
0,5902;103,01869;-0,00078;103,01869
0,5930;103,44040;-0,00048;103,44040
0,5958;103,85768;-0,00033;103,85768
0,5987;104,26716;-0,00003;104,26716
0,6017;104,69317;0,00012;104,69317
0,6047;105,10731;0,00041;105,10731
0,6077;105,50946;0,00072;105,50946
0,6109;105,92418;0,00087;105,92418
0,6141;106,32842;0,00116;106,32842
0,6174;106,74791;0,00146;106,74791
0,6208;107,16170;0,00177;107,16170
0,6242;107,57212;0,00191;107,57212
0,6276;107,98125;0,00222;107,98125
0,6309;108,39027;0,00252;108,39027
0,6343;108,80068;0,00282;108,80068
0,6377;109,21389;0,00314;109,21389
0,6411;109,63128;0,00328;109,63128
0,6445;110,05404;0,00360;110,05404
0,6477;110,45816;0,00391;110,45816
0,6508;110,86543;0,00423;110,86543
0,6540;111,27259;0,00439;111,27259
0,6572;111,67637;0,00472;111,67637
0,6606;112,09737;0,00504;112,09737
0,6640;112,51128;0,00538;112,51128
0,6674;112,91832;0,00555;112,91832
0,6708;113,31965;0,00588;113,31965
0,6743;113,73844;0,00624;113,73844
0,6779;114,15410;0,00659;114,15410
0,6815;114,56742;0,00695;114,56742
0,6850;114,97818;0,00732;114,97818
0,6886;115,38452;0,00770;115,38452
0,6922;115,78527;0,00809;115,78527
0,6959;116,20325;0,00848;116,20325
0,6997;116,62368;0,00887;116,62368
0,7032;117,03514;0,00909;117,03514
0,7066;117,44311;0,00950;117,44311
0,7100;117,84793;0,00993;117,84793
0,7141;118,26358;0,01037;118,26358
0,7209;118,66725;0,01130;118,66725
1,2460;118,93147;0,61186;118,93147
1,2785;119,33618;0,65227;119,33618
1,2839;119,75032;0,65907;119,75032
1,2892;120,15956;0,66579;120,15956
1,2946;120,56625;0,67024;120,56625
1,3019;120,97236;0,67910;120,97236
1,3136;121,37393;0,69463;121,37393
1,3243;121,77875;0,70598;121,77875
1,3320;122,18486;0,71535;122,18486
1,3404;122,58969;0,72758;122,58969
1,3492;122,99475;0,74059;122,99475
1,3586;123,39841;0,75453;123,39841
1,3663;123,80207;0,76647;123,80207
1,3729;124,20573;0,77593;124,20573
1,3783;124,60649;0,78584;124,60649
1,3838;125,01725;0,79622;125,01725
1,3890;125,42801;0,80706;125,42801
1,3949;125,82853;0,81838;125,82853
1,5546;126,22859;1,35856;126,22859
1,6553;126,26956;1,96867;126,26956
1,7304;126,29016;2,57656;126,29016
1,7942;126,30750;3,19426;126,30750
1,8505;126,32007;3,79718;126,32007
1,9050;126,33183;4,40914;126,33183
1,9594;126,34161;5,02832;126,34161
2,0138;126,34952;5,63654;126,34952
2,0702;126,35907;6,23992;126,35907
2,1302;126,36593;6,84432;126,36593
2,1960;126,37338;7,45264;126,37338
