Part protocol
Network name;Part_OP10_MP-001_2020-08-26_15-10-30_0021_OK.csv
Protocol version;2.01.00

Index;Result information;Process values - curve related;Process values - EO related;Evaluation objects settings;Switch signal settings;Device information;Channel-X settings;Channel-Y settings;Cycle control settings;Evaluation settings;Trigger Y settings;Block settings;Measuring curve;Measuring points;Sequence;
Line;10;30;40;70;100;120;150;190;220;240;250;260;270;280;600;



Result information
Date;2020/08/26
Time;15:10:30
Cycle number;21
Total result;OK
Triggered switch signals
Part serial number;0021
Measuring program name;D57-Left
Measuring program number;1
Zero X offset;0,00;mm
Tara Y offset;0,0;kN









Process values - curve related
Block X;126,32;mm;XMIN-X;-0,15;mm
Block Y;7,5;kN;XMIN-Y;0,0;kN
Ref X;-;mm;XMAX-X;126,32;mm
Peak-peak X;126,48;mm;XMAX-Y;7,5;kN
Peak-peak Y;7,5;kN;YMIN-X;0,25;mm
;;;YMIN-Y;0,0;kN
;;;YMAX-X;126,32;mm
;;;YMAX-Y;7,5;kN

Process values - EO related;Result;Entry;Exit;XMIN-X;XMIN-Y;XMAX-X;XMAX-Y;YMIN-Y;YMIN-X;YMAX-Y;YMAX-X
;;;;mm;kN;mm;kN;kN;mm;kN;mm
EO-01;OK;0,8;0,8;;;;;0,8;124,50;0,8;125,56;;;;;;
EO-02;OK;126,28;126,30;126,28;4,5;126,29;5,1;;;;;;;;;;
EO-03;None;
EO-04;None;
























Evaluation objects settings;Reaction;X reference;Y-Reference;XMin;XMax;YMin;YMax;Entry;Exit;Curve part;Catch zone X;Catch zone Y
EO-01;UNI-BOX;ABSOLUTE;-;124,50;125,70;0,5;3,0;LEFT;RIGHT;ANY;+50%;+50%
EO-02;UNI-BOX;ABSOLUTE;-;125,80;127,20;4,5;5,5;BELOW;ABOVE;ANY;+50%;+50%
EO-03;OFF
EO-04;OFF

























Switch signal settings;Channel;Threshold at;;Trigger from;Reference;Latch until
Type S1;OFF
Type S2;OFF

















Device information
Device type;maXYmos BL
Device type number;5867B1011
Device serial number;5182443
Firmware version;2.3.2 (r22473-BL_v2.3.x)
-
-
-
-
-
IP Address;10.0.0.18
Network name;OP10
Profibus address;10
-
-
-
Station name;OP10
Company name;
Comment;











Channel-X settings
Use the settings from global setup;True
Sensor-X type;Â±10V
Unit;mm
Used range from;0,00;mm
Used range to;200,00;mm
Decimal places;XXXX.XX
Scaling by;Teach-In
Point 1;0,00;mm;-0,350;%
Point 2;200,00;mm;10,000;%
Invert signal;FALSE
Filter;20 Hz
Test point;0,00;mm
Tolerance;2,00;mm
Enable sensor test by dig-input;FALSE
Zoom from;110,00;mm
Zoom to;133,11;mm























Channel-Y settings
Use the settings from global setup;True
Sensor-Y type;Strain Gage
Unit;kN
Used range from;0,0;kN
Used range to;20,0;kN
Decimal places;XXXXX.X
Scaling by;Teach-In
Point 1;0,0;kN;-0,01562;%
Point 2;20,0;kN;2,00000;%
Invert signal;FALSE
Filter;1 Hz
Piezo reset;-
Test point;0,0;kN
Tolerance;0,1;kN
Enable sensor test by dig-input;FALSE
Zoom from;0,0;kN
Zoom to;6,0;kN












Cycle control settings
Use the settings from global setup;True
Measuring function;Y (X)
Delta-X;Automatic
START condition;Dig-Input
STOP condition;Dig-Input
Cycle time out;20,00;s
Turning point RIGHT;YMAX
Turning point LEFT;NONE
Cut curve at;NONE










Evaluation settings
Capture only first NOK-EO for statistics;False
Hysteresis-X;0,0;%
Hysteresis-Y;100,0;%






Trigger Y settings
Threshold;1,9;kN
Value X at TRIGGER Y;0,00;mm
Approach from;BELOW






Block settings
Value X at block;XMAX
Block at;0,00;mm







Measuring curve
Number of measuring points;316
Ref. Graph on;ABSOLUTE
Curve segments;0;316;315;316;


Time;X(ABSOLUTE);Y;X (ABSOLUTE)


s;mm;kN;mm
0,0000;-0,15338;-0,03494;-0,15338
0,0955;0,25237;-0,03496;0,25237
0,0995;0,66302;-0,03496;0,66302
0,1023;1,07425;-0,03496;1,07425
0,1045;1,47663;-0,03496;1,47663
0,1066;1,90311;-0,03496;1,90311
0,1085;2,33866;-0,03496;2,33866
0,1102;2,76956;-0,03496;2,76956
0,1117;3,18323;-0,03495;3,18323
0,1132;3,62554;-0,03495;3,62554
0,1145;4,03572;-0,03495;4,03572
0,1158;4,46755;-0,03495;4,46755
0,1171;4,92068;-0,03495;4,92068
0,1182;5,32411;-0,03494;5,32411
0,1194;5,73837;-0,03494;5,73837
0,1205;6,15902;-0,03494;6,15902
0,1216;6,58142;-0,03493;6,58142
0,1227;7,00057;-0,03493;7,00057
0,1239;7,41226;-0,03492;7,41226
0,1250;7,81336;-0,03492;7,81336
0,1263;8,26568;-0,03492;8,26568
0,1276;8,69984;-0,03491;8,69984
0,1289;9,11595;-0,03490;9,11595
0,1304;9,56978;-0,03489;9,56978
0,1319;10,00115;-0,03489;10,00115
0,1334;10,41156;-0,03487;10,41156
0,1351;10,85154;-0,03486;10,85154
0,1368;11,27406;-0,03485;11,27406
0,1385;11,68599;-0,03483;11,68599
0,1402;12,09256;-0,03481;12,09256
0,1419;12,49657;-0,03479;12,49657
0,1436;12,90000;-0,03477;12,90000
0,1453;13,30471;-0,03477;13,30471
0,1470;13,71303;-0,03475;13,71303
0,1486;14,12658;-0,03473;14,12658
0,1503;14,54573;-0,03470;14,54573
0,1520;14,96964;-0,03467;14,96964
0,1537;15,39740;-0,03464;15,39740
0,1554;15,82865;-0,03460;15,82865
0,1571;16,26350;-0,03457;16,26350
0,1588;16,70220;-0,03453;16,70220
0,1605;17,14404;-0,03449;17,14404
0,1622;17,58786;-0,03449;17,58786
0,1639;18,03296;-0,03446;18,03296
0,1655;18,47957;-0,03441;18,47957
0,1672;18,92782;-0,03436;18,92782
0,1689;19,37769;-0,03432;19,37769
0,1704;19,77844;-0,03426;19,77844
0,1719;20,17943;-0,03421;20,17943
0,1734;20,58076;-0,03421;20,58076
0,1749;20,98244;-0,03416;20,98244
0,1764;21,38517;-0,03410;21,38517
0,1779;21,78895;-0,03404;21,78895
0,1794;22,19366;-0,03398;22,19366
0,1809;22,59861;-0,03398;22,59861
0,1824;23,00332;-0,03391;23,00332
0,1839;23,40768;-0,03385;23,40768
0,1854;23,81204;-0,03377;23,81204
0,1869;24,21675;-0,03370;24,21675
0,1884;24,62169;-0,03370;24,62169
0,1899;25,02663;-0,03362;25,02663
0,1914;25,43088;-0,03355;25,43088
0,1930;25,83431;-0,03348;25,83431
0,1945;26,23692;-0,03339;26,23692
0,1960;26,63919;-0,03339;26,63919
0,1975;27,04134;-0,03331;27,04134
0,1990;27,44314;-0,03322;27,44314
0,2005;27,84412;-0,03313;27,84412
0,2021;28,29365;-0,03304;28,29365
0,2038;28,74107;-0,03295;28,74107
0,2055;29,18641;-0,03285;29,18641
0,2072;29,63023;-0,03285;29,63023
0,2089;30,07207;-0,03275;30,07207
0,2106;30,51181;-0,03265;30,51181
0,2123;30,94900;-0,03255;30,94900
0,2140;31,38327;-0,03245;31,38327
0,2157;31,81498;-0,03234;31,81498
0,2174;32,24449;-0,03223;32,24449
0,2190;32,67201;-0,03211;32,67201
0,2207;33,09744;-0,03200;33,09744
0,2224;33,52066;-0,03189;33,52066
0,2241;33,94166;-0,03189;33,94166
0,2258;34,36046;-0,03177;34,36046
0,2275;34,77727;-0,03165;34,77727
0,2292;35,19211;-0,03153;35,19211
0,2309;35,60473;-0,03141;35,60473
0,2326;36,01515;-0,03129;36,01515
0,2343;36,42358;-0,03116;36,42358
0,2359;36,83015;-0,03103;36,83015
0,2376;37,23521;-0,03090;37,23521
0,2393;37,63864;-0,03077;37,63864
0,2410;38,04056;-0,03077;38,04056
0,2427;38,44096;-0,03064;38,44096
0,2446;38,88432;-0,03050;38,88432
0,2465;39,32604;-0,03037;39,32604
0,2483;39,76637;-0,03024;39,76637
0,2502;40,20506;-0,03010;40,20506
0,2521;40,64237;-0,02996;40,64237
0,2540;41,07815;-0,02981;41,07815
0,2558;41,51266;-0,02967;41,51266
0,2577;41,94577;-0,02953;41,94577
0,2596;42,37737;-0,02938;42,37737
0,2615;42,80734;-0,02924;42,80734
0,2634;43,23568;-0,02909;43,23568
0,2652;43,66250;-0,02894;43,66250
0,2671;44,08746;-0,02879;44,08746
0,2690;44,51091;-0,02864;44,51091
0,2709;44,93273;-0,02849;44,93273
0,2727;45,35327;-0,02834;45,35327
0,2746;45,77277;-0,02818;45,77277
0,2765;46,19133;-0,02802;46,19133
0,2784;46,60896;-0,02787;46,60896
0,2802;47,02554;-0,02772;47,02554
0,2821;47,44073;-0,02756;47,44073
0,2840;47,85428;-0,02740;47,85428
0,2859;48,26621;-0,02725;48,26621
0,2878;48,67627;-0,02708;48,67627
0,2896;49,08482;-0,02692;49,08482
0,2915;49,49186;-0,02676;49,49186
0,2934;49,89774;-0,02660;49,89774
0,2953;50,30245;-0,02644;50,30245
0,2971;50,70611;-0,02627;50,70611
0,2990;51,10861;-0,02611;51,10861
0,3009;51,50994;-0,02595;51,50994
0,3028;51,91000;-0,02578;51,91000
0,3048;52,34858;-0,02562;52,34858
0,3069;52,78530;-0,02529;52,78530
0,3090;53,22015;-0,02513;53,22015
0,3110;53,65350;-0,02496;53,65350
0,3131;54,08521;-0,02479;54,08521
0,3152;54,51576;-0,02463;54,51576
0,3172;54,94515;-0,02446;54,94515
0,3193;55,37325;-0,02429;55,37325
0,3214;55,79984;-0,02412;55,79984
0,3234;56,22481;-0,02395;56,22481
0,3255;56,64791;-0,02378;56,64791
0,3276;57,06915;-0,02345;57,06915
0,3296;57,48887;-0,02328;57,48887
0,3317;57,90732;-0,02311;57,90732
0,3338;58,32483;-0,02294;58,32483
0,3358;58,74130;-0,02277;58,74130
0,3379;59,15660;-0,02261;59,15660
0,3400;59,57004;-0,02243;59,57004
0,3420;59,98162;-0,02227;59,98162
0,3441;60,39110;-0,02210;60,39110
0,3461;60,79860;-0,02193;60,79860
0,3482;61,20448;-0,02159;61,20448
0,3503;61,60895;-0,02142;61,60895
0,3523;62,01261;-0,02126;62,01261
0,3544;62,41523;-0,02109;62,41523
0,3565;62,81703;-0,02091;62,81703
0,3585;63,21778;-0,02075;63,21778
0,3608;63,65369;-0,02058;63,65369
0,3630;64,08785;-0,02041;64,08785
0,3653;64,52049;-0,02008;64,52049
0,3675;64,95185;-0,01990;64,95185
0,3698;65,38217;-0,01974;65,38217
0,3721;65,81167;-0,01957;65,81167
0,3743;66,24060;-0,01940;66,24060
0,3766;66,66858;-0,01907;66,66858
0,3788;67,09564;-0,01891;67,09564
0,3811;67,52154;-0,01874;67,52154
0,3833;67,94638;-0,01857;67,94638
0,3856;68,37030;-0,01841;68,37030
0,3878;68,79317;-0,01808;68,79317
0,3901;69,21545;-0,01791;69,21545
0,3923;69,63751;-0,01775;69,63751
0,3946;70,05933;-0,01758;70,05933
0,3968;70,48091;-0,01741;70,48091
0,3991;70,90192;-0,01709;70,90192
0,4013;71,32188;-0,01692;71,32188
0,4036;71,74032;-0,01676;71,74032
0,4058;72,15725;-0,01660;72,15725
0,4081;72,57302;-0,01643;72,57302
0,4104;72,98809;-0,01611;72,98809
0,4126;73,40293;-0,01594;73,40293
0,4149;73,81800;-0,01579;73,81800
0,4171;74,23307;-0,01562;74,23307
0,4194;74,64755;-0,01546;74,64755
0,4216;75,06099;-0,01514;75,06099
0,4239;75,47280;-0,01497;75,47280
0,4261;75,88298;-0,01481;75,88298
0,4284;76,29153;-0,01466;76,29153
0,4306;76,69846;-0,01449;76,69846
0,4329;77,10398;-0,01417;77,10398
0,4351;77,50846;-0,01401;77,50846
0,4374;77,91189;-0,01385;77,91189
0,4396;78,31450;-0,01369;78,31450
0,4419;78,71607;-0,01354;78,71607
0,4441;79,11671;-0,01321;79,11671
0,4466;79,54970;-0,01305;79,54970
0,4490;79,98130;-0,01290;79,98130
0,4515;80,41173;-0,01258;80,41173
0,4539;80,84077;-0,01243;80,84077
0,4564;81,26841;-0,01227;81,26841
0,4588;81,69454;-0,01211;81,69454
0,4612;82,11857;-0,01180;82,11857
0,4637;82,54062;-0,01164;82,54062
0,4661;82,96069;-0,01148;82,96069
0,4686;83,37879;-0,01117;83,37879
0,4710;83,79514;-0,01101;83,79514
0,4734;84,20974;-0,01085;84,20974
0,4759;84,62272;-0,01055;84,62272
0,4783;85,03430;-0,01039;85,03430
0,4808;85,44471;-0,01023;85,44471
0,4832;85,85384;-0,01007;85,85384
0,4856;86,26158;-0,00977;86,26158
0,4881;86,66757;-0,00961;86,66757
0,4905;87,07181;-0,00945;87,07181
0,4930;87,47466;-0,00915;87,47466
0,4954;87,87623;-0,00900;87,87623
0,4978;88,27663;-0,00884;88,27663
0,5005;88,70695;-0,00854;88,70695
0,5031;89,13599;-0,00838;89,13599
0,5057;89,56339;-0,00823;89,56339
0,5084;89,98882;-0,00793;89,98882
0,5110;90,41216;-0,00778;90,41216
0,5136;90,83374;-0,00747;90,83374
0,5162;91,25405;-0,00732;91,25405
0,5189;91,67343;-0,00717;91,67343
0,5215;92,09222;-0,00686;92,09222
0,5241;92,51055;-0,00671;92,51055
0,5268;92,92818;-0,00641;92,92818
0,5294;93,34453;-0,00626;93,34453
0,5320;93,75971;-0,00611;93,75971
0,5346;94,17362;-0,00581;94,17362
0,5373;94,58683;-0,00566;94,58683
0,5399;94,99992;-0,00536;94,99992
0,5425;95,41277;-0,00520;95,41277
0,5452;95,82517;-0,00506;95,82517
0,5478;96,23663;-0,00476;96,23663
0,5504;96,64681;-0,00461;96,64681
0,5530;97,05559;-0,00431;97,05559
0,5557;97,46333;-0,00416;97,46333
0,5583;97,87025;-0,00401;97,87025
0,5609;98,27659;-0,00371;98,27659
0,5636;98,68258;-0,00357;98,68258
0,5662;99,08810;-0,00327;99,08810
0,5688;99,49305;-0,00312;99,49305
0,5714;99,89694;-0,00297;99,89694
0,5741;100,29967;-0,00267;100,29967
0,5767;100,70101;-0,00252;100,70101
0,5795;101,12946;-0,00222;101,12946
0,5823;101,55629;-0,00208;101,55629
0,5851;101,98183;-0,00178;101,98183
0,5880;102,40633;-0,00163;102,40633
0,5908;102,83036;-0,00134;102,83036
0,5936;103,25370;-0,00119;103,25370
0,5964;103,67400;-0,00089;103,67400
0,5992;104,08756;-0,00074;104,08756
0,6020;104,48983;-0,00045;104,48983
0,6050;104,90489;-0,00030;104,90489
0,6080;105,30681;0,00000;105,30681
0,6112;105,72107;0,00029;105,72107
0,6144;106,12531;0,00044;106,12531
0,6178;106,54608;0,00074;106,54608
0,6212;106,96255;0,00103;106,96255
0,6246;107,37680;0,00134;107,37680
0,6279;107,78978;0,00164;107,78978
0,6313;108,20252;0,00179;108,20252
0,6347;108,61421;0,00210;108,61421
0,6381;109,02265;0,00240;109,02265
0,6415;109,42561;0,00272;109,42561
0,6450;109,84243;0,00303;109,84243
0,6486;110,24737;0,00335;110,24737
0,6524;110,65941;0,00367;110,65941
0,6563;111,07728;0,00400;111,07728
0,6602;111,48094;0,00433;111,48094
0,6644;111,88972;0,00467;111,88972
0,6687;112,30421;0,00501;112,30421
0,6730;112,70973;0,00555;112,70973
0,6775;113,12597;0,00591;113,12597
0,6820;113,53557;0,00629;113,53557
0,6865;113,94051;0,00688;113,94051
0,6910;114,34487;0,00727;114,34487
0,6955;114,75202;0,00790;114,75202
0,7000;115,16488;0,00834;115,16488
0,7044;115,56843;0,00878;115,56843
0,7087;115,98373;0,00949;115,98373
0,7128;116,39938;0,00997;116,39938
0,7166;116,80246;0,01048;116,80246
0,7201;117,21753;0,01099;117,21753
0,7235;117,64098;0,01125;117,64098
0,7269;118,05279;0,01181;118,05279
0,7310;118,46134;0,01237;118,46134
0,7383;118,86221;0,01358;118,86221
1,2494;119,06067;0,61379;119,06067
1,2839;119,46189;0,65587;119,46189
1,2886;119,87567;0,66033;119,87567
1,2927;120,29493;0,66695;120,29493
1,2967;120,70395;0,67132;120,70395
1,3010;121,11204;0,67567;121,11204
1,3070;121,52059;0,68216;121,52059
1,3226;121,92495;0,70161;121,92495
1,3316;122,33501;0,71041;122,33501
1,3370;122,73891;0,71714;122,73891
1,3421;123,14024;0,72401;123,14024
1,3476;123,54041;0,73104;123,54041
1,3545;123,94885;0,74075;123,94885
1,3635;124,35135;0,75088;124,35135
1,3714;124,75291;0,76421;124,75291
1,3774;125,15471;0,77259;125,15471
1,3827;125,55640;0,78126;125,55640
1,3898;125,96320;0,79025;125,96320
1,5723;126,18866;1,39179;126,18866
1,6624;126,22242;1,99636;126,22242
1,7319;126,24174;2,60291;126,24174
1,7919;126,25629;3,20921;126,25629
1,8483;126,26816;3,82454;126,26816
1,9027;126,28038;4,44072;126,28038
1,9571;126,29121;5,05820;126,29121
2,0116;126,29831;5,66087;126,29831
2,0698;126,30948;6,27561;126,30948
2,1317;126,31623;6,88742;126,31623
2,1952;126,32368;7,45173;126,32368
2,1993;126,32368;7,50065;126,32368
