Part protocol
Network name;Part_OP10_MP-001_2020-08-26_14-51-33_0017_OK.csv
Protocol version;2.01.00

Index;Result information;Process values - curve related;Process values - EO related;Evaluation objects settings;Switch signal settings;Device information;Channel-X settings;Channel-Y settings;Cycle control settings;Evaluation settings;Trigger Y settings;Block settings;Measuring curve;Measuring points;Sequence;
Line;10;30;40;70;100;120;150;190;220;240;250;260;270;280;600;



Result information
Date;2020/08/26
Time;14:51:33
Cycle number;17
Total result;OK
Triggered switch signals
Part serial number;0017
Measuring program name;D57-Left
Measuring program number;1
Zero X offset;0,00;mm
Tara Y offset;0,0;kN









Process values - curve related
Block X;126,31;mm;XMIN-X;-0,19;mm
Block Y;7,2;kN;XMIN-Y;0,0;kN
Ref X;-;mm;XMAX-X;126,31;mm
Peak-peak X;126,50;mm;XMAX-Y;7,2;kN
Peak-peak Y;7,5;kN;YMIN-X;-0,19;mm
;;;YMIN-Y;0,0;kN
;;;YMAX-X;126,31;mm
;;;YMAX-Y;7,4;kN

Process values - EO related;Result;Entry;Exit;XMIN-X;XMIN-Y;XMAX-X;XMAX-Y;YMIN-Y;YMIN-X;YMAX-Y;YMAX-X
;;;;mm;kN;mm;kN;kN;mm;kN;mm
EO-01;OK;0,7;0,7;;;;;0,7;124,50;0,7;125,43;;;;;;
EO-02;OK;126,28;126,28;126,28;4,5;126,28;5,0;;;;;;;;;;
EO-03;None;
EO-04;None;
























Evaluation objects settings;Reaction;X reference;Y-Reference;XMin;XMax;YMin;YMax;Entry;Exit;Curve part;Catch zone X;Catch zone Y
EO-01;UNI-BOX;ABSOLUTE;-;124,50;125,70;0,5;3,0;LEFT;RIGHT;ANY;+50%;+50%
EO-02;UNI-BOX;ABSOLUTE;-;125,80;127,20;4,5;5,5;BELOW;ABOVE;ANY;+50%;+50%
EO-03;OFF
EO-04;OFF

























Switch signal settings;Channel;Threshold at;;Trigger from;Reference;Latch until
Type S1;OFF
Type S2;OFF

















Device information
Device type;maXYmos BL
Device type number;5867B1011
Device serial number;5182443
Firmware version;2.3.2 (r22473-BL_v2.3.x)
-
-
-
-
-
IP Address;10.0.0.18
Network name;OP10
Profibus address;10
-
-
-
Station name;OP10
Company name;
Comment;











Channel-X settings
Use the settings from global setup;True
Sensor-X type;Â±10V
Unit;mm
Used range from;0,00;mm
Used range to;200,00;mm
Decimal places;XXXX.XX
Scaling by;Teach-In
Point 1;0,00;mm;-0,350;%
Point 2;200,00;mm;10,000;%
Invert signal;FALSE
Filter;20 Hz
Test point;0,00;mm
Tolerance;2,00;mm
Enable sensor test by dig-input;FALSE
Zoom from;110,00;mm
Zoom to;133,11;mm























Channel-Y settings
Use the settings from global setup;True
Sensor-Y type;Strain Gage
Unit;kN
Used range from;0,0;kN
Used range to;20,0;kN
Decimal places;XXXXX.X
Scaling by;Teach-In
Point 1;0,0;kN;-0,01562;%
Point 2;20,0;kN;2,00000;%
Invert signal;FALSE
Filter;1 Hz
Piezo reset;-
Test point;0,0;kN
Tolerance;0,1;kN
Enable sensor test by dig-input;FALSE
Zoom from;0,0;kN
Zoom to;6,0;kN












Cycle control settings
Use the settings from global setup;True
Measuring function;Y (X)
Delta-X;Automatic
START condition;Dig-Input
STOP condition;Dig-Input
Cycle time out;20,00;s
Turning point RIGHT;YMAX
Turning point LEFT;NONE
Cut curve at;NONE










Evaluation settings
Capture only first NOK-EO for statistics;False
Hysteresis-X;0,0;%
Hysteresis-Y;100,0;%






Trigger Y settings
Threshold;1,9;kN
Value X at TRIGGER Y;0,00;mm
Approach from;BELOW






Block settings
Value X at block;XMAX
Block at;0,00;mm







Measuring curve
Number of measuring points;315
Ref. Graph on;ABSOLUTE
Curve segments;0;315;314;315;


Time;X(ABSOLUTE);Y;X (ABSOLUTE)


s;mm;kN;mm
0,0000;-0,18982;-0,03507;-0,18982
0,0962;0,21385;-0,03502;0,21385
0,1001;0,63229;-0,03501;0,63229
0,1029;1,05039;-0,03501;1,05039
0,1052;1,45917;-0,03501;1,45917
0,1072;1,89251;-0,03501;1,89251
0,1091;2,33494;-0,03501;2,33494
0,1108;2,77247;-0,03500;2,77247
0,1123;3,19231;-0,03500;3,19231
0,1138;3,64067;-0,03499;3,64067
0,1151;4,05621;-0,03499;4,05621
0,1164;4,49339;-0,03499;4,49339
0,1178;4,95106;-0,03499;4,95106
0,1189;5,35763;-0,03498;5,35763
0,1200;5,77410;-0,03498;5,77410
0,1211;6,19627;-0,03498;6,19627
0,1223;6,61925;-0,03498;6,61925
0,1234;7,03851;-0,03498;7,03851
0,1245;7,45009;-0,03497;7,45009
0,1256;7,85096;-0,03497;7,85096
0,1270;8,30281;-0,03496;8,30281
0,1283;8,73569;-0,03495;8,73569
0,1296;9,14843;-0,03495;9,14843
0,1311;9,59539;-0,03493;9,59539
0,1326;10,01640;-0,03492;10,01640
0,1343;10,46243;-0,03491;10,46243
0,1360;10,88471;-0,03489;10,88471
0,1377;11,29012;-0,03487;11,29012
0,1395;11,72835;-0,03485;11,72835
0,1414;12,15949;-0,03484;12,15949
0,1433;12,58864;-0,03482;12,58864
0,1452;13,01977;-0,03479;13,01977
0,1470;13,45661;-0,03476;13,45661
0,1489;13,90101;-0,03473;13,90101
0,1506;14,30781;-0,03473;14,30781
0,1523;14,72067;-0,03471;14,72067
0,1540;15,13958;-0,03468;15,13958
0,1557;15,56466;-0,03464;15,56466
0,1574;15,99579;-0,03460;15,99579
0,1591;16,43239;-0,03457;16,43239
0,1608;16,87330;-0,03452;16,87330
0,1624;17,31771;-0,03448;17,31771
0,1641;17,76548;-0,03444;17,76548
0,1656;18,16635;-0,03444;18,16635
0,1671;18,56990;-0,03439;18,56990
0,1686;18,97577;-0,03434;18,97577
0,1701;19,38327;-0,03429;19,38327
0,1716;19,79217;-0,03423;19,79217
0,1731;20,20236;-0,03423;20,20236
0,1746;20,61405;-0,03417;20,61405
0,1761;21,02761;-0,03411;21,02761
0,1776;21,44279;-0,03405;21,44279
0,1792;21,85926;-0,03398;21,85926
0,1807;22,27654;-0,03398;22,27654
0,1822;22,69428;-0,03391;22,69428
0,1837;23,11238;-0,03385;23,11238
0,1852;23,53106;-0,03377;23,53106
0,1867;23,95055;-0,03369;23,95055
0,1882;24,37051;-0,03369;24,37051
0,1897;24,79058;-0,03361;24,79058
0,1912;25,21031;-0,03353;25,21031
0,1927;25,62945;-0,03345;25,62945
0,1942;26,04824;-0,03336;26,04824
0,1957;26,46681;-0,03336;26,46681
0,1972;26,88490;-0,03327;26,88490
0,1987;27,30265;-0,03318;27,30265
0,2002;27,71935;-0,03308;27,71935
0,2017;28,13477;-0,03298;28,13477
0,2032;28,54879;-0,03298;28,54879
0,2047;28,96118;-0,03288;28,96118
0,2062;29,37217;-0,03278;29,37217
0,2077;29,78131;-0,03268;29,78131
0,2092;30,18846;-0,03257;30,18846
0,2107;30,59340;-0,03257;30,59340
0,2122;30,99567;-0,03246;30,99567
0,2139;31,44508;-0,03235;31,44508
0,2156;31,89122;-0,03223;31,89122
0,2173;32,33411;-0,03211;32,33411
0,2190;32,77362;-0,03199;32,77362
0,2206;33,20988;-0,03187;33,20988
0,2223;33,64299;-0,03174;33,64299
0,2240;34,07307;-0,03162;34,07307
0,2257;34,50001;-0,03162;34,50001
0,2274;34,92381;-0,03149;34,92381
0,2291;35,34412;-0,03136;35,34412
0,2308;35,76082;-0,03124;35,76082
0,2325;36,17391;-0,03110;36,17391
0,2342;36,58374;-0,03097;36,58374
0,2358;36,99043;-0,03083;36,99043
0,2375;37,39409;-0,03069;37,39409
0,2392;37,79496;-0,03055;37,79496
0,2411;38,23738;-0,03040;38,23738
0,2430;38,67678;-0,03026;38,67678
0,2449;39,11362;-0,03012;39,11362
0,2467;39,54812;-0,02997;39,54812
0,2486;39,98030;-0,02982;39,98030
0,2505;40,41039;-0,02967;40,41039
0,2524;40,83838;-0,02952;40,83838
0,2542;41,26404;-0,02937;41,26404
0,2561;41,68749;-0,02922;41,68749
0,2580;42,10873;-0,02906;42,10873
0,2599;42,52810;-0,02891;42,52810
0,2618;42,94597;-0,02875;42,94597
0,2636;43,36243;-0,02860;43,36243
0,2655;43,77773;-0,02844;43,77773
0,2674;44,19164;-0,02827;44,19164
0,2693;44,60438;-0,02812;44,60438
0,2711;45,01572;-0,02796;45,01572
0,2730;45,42614;-0,02779;45,42614
0,2749;45,83550;-0,02763;45,83550
0,2768;46,24394;-0,02747;46,24394
0,2787;46,65144;-0,02730;46,65144
0,2805;47,05778;-0,02713;47,05778
0,2824;47,46284;-0,02698;47,46284
0,2843;47,86650;-0,02681;47,86650
0,2862;48,26877;-0,02664;48,26877
0,2880;48,66964;-0,02648;48,66964
0,2901;49,10962;-0,02630;49,10962
0,2922;49,54855;-0,02613;49,54855
0,2942;49,98678;-0,02597;49,98678
0,2963;50,42431;-0,02580;50,42431
0,2984;50,86092;-0,02563;50,86092
0,3004;51,29647;-0,02546;51,29647
0,3025;51,73109;-0,02529;51,73109
0,3046;52,16455;-0,02512;52,16455
0,3066;52,59685;-0,02477;52,59685
0,3087;53,02833;-0,02461;53,02833
0,3108;53,45911;-0,02443;53,45911
0,3128;53,88908;-0,02426;53,88908
0,3149;54,31847;-0,02409;54,31847
0,3170;54,74704;-0,02392;54,74704
0,3190;55,17468;-0,02375;55,17468
0,3211;55,60127;-0,02357;55,60127
0,3231;56,02635;-0,02340;56,02635
0,3252;56,45015;-0,02323;56,45015
0,3273;56,87267;-0,02289;56,87267
0,3293;57,29414;-0,02271;57,29414
0,3314;57,71456;-0,02254;57,71456
0,3335;58,13417;-0,02237;58,13417
0,3355;58,55285;-0,02219;58,55285
0,3376;58,97048;-0,02202;58,97048
0,3397;59,38706;-0,02185;59,38706
0,3417;59,80213;-0,02167;59,80213
0,3438;60,21580;-0,02151;60,21580
0,3459;60,62796;-0,02133;60,62796
0,3479;61,03884;-0,02099;61,03884
0,3500;61,44856;-0,02081;61,44856
0,3521;61,85734;-0,02065;61,85734
0,3541;62,26519;-0,02047;62,26519
0,3562;62,67177;-0,02030;62,67177
0,3583;63,07706;-0,02013;63,07706
0,3603;63,48095;-0,01996;63,48095
0,3624;63,88322;-0,01979;63,88322
0,3645;64,28386;-0,01962;64,28386
0,3667;64,71918;-0,01928;64,71918
0,3690;65,15310;-0,01911;65,15310
0,3712;65,58587;-0,01894;65,58587
0,3735;66,01723;-0,01878;66,01723
0,3757;66,44755;-0,01860;66,44755
0,3780;66,87682;-0,01827;66,87682
0,3802;67,30492;-0,01810;67,30492
0,3825;67,73198;-0,01793;67,73198
0,3847;68,15776;-0,01777;68,15776
0,3870;68,58202;-0,01760;68,58202
0,3892;69,00501;-0,01727;69,00501
0,3915;69,42671;-0,01710;69,42671
0,3937;69,84725;-0,01693;69,84725
0,3960;70,26663;-0,01677;70,26663
0,3982;70,68519;-0,01660;70,68519
0,4005;71,10294;-0,01628;71,10294
0,4028;71,51975;-0,01611;71,51975
0,4050;71,93563;-0,01595;71,93563
0,4073;72,35059;-0,01579;72,35059
0,4095;72,76461;-0,01563;72,76461
0,4118;73,17817;-0,01530;73,17817
0,4140;73,59114;-0,01514;73,59114
0,4163;74,00376;-0,01498;74,00376
0,4185;74,41569;-0,01481;74,41569
0,4208;74,82680;-0,01466;74,82680
0,4230;75,23722;-0,01434;75,23722
0,4253;75,64658;-0,01417;75,64658
0,4275;76,05502;-0,01402;76,05502
0,4298;76,46252;-0,01386;76,46252
0,4320;76,86944;-0,01370;76,86944
0,4343;77,27567;-0,01339;77,27567
0,4365;77,68131;-0,01323;77,68131
0,4388;78,08590;-0,01307;78,08590
0,4410;78,48945;-0,01292;78,48945
0,4433;78,89194;-0,01276;78,89194
0,4456;79,29316;-0,01245;79,29316
0,4478;79,69345;-0,01230;79,69345
0,4502;80,12586;-0,01214;80,12586
0,4527;80,55734;-0,01198;80,55734
0,4551;80,98778;-0,01168;80,98778
0,4576;81,41670;-0,01153;81,41670
0,4600;81,84399;-0,01137;81,84399
0,4625;82,26918;-0,01106;82,26918
0,4649;82,69205;-0,01092;82,69205
0,4673;83,11271;-0,01076;83,11271
0,4698;83,53127;-0,01061;83,53127
0,4722;83,94820;-0,01031;83,94820
0,4747;84,36327;-0,01016;84,36327
0,4771;84,77659;-0,01000;84,77659
0,4795;85,18829;-0,00970;85,18829
0,4820;85,59835;-0,00956;85,59835
0,4844;86,00655;-0,00941;86,00655
0,4869;86,41301;-0,00911;86,41301
0,4893;86,81772;-0,00896;86,81772
0,4917;87,22068;-0,00881;87,22068
0,4942;87,62214;-0,00866;87,62214
0,4966;88,02219;-0,00837;88,02219
0,4992;88,45134;-0,00822;88,45134
0,5019;88,87875;-0,00793;88,87875
0,5045;89,30418;-0,00778;89,30418
0,5071;89,72763;-0,00763;89,72763
0,5098;90,14875;-0,00734;90,14875
0,5124;90,56801;-0,00720;90,56801
0,5150;90,98541;-0,00691;90,98541
0,5176;91,40164;-0,00676;91,40164
0,5203;91,81706;-0,00661;91,81706
0,5229;92,23178;-0,00632;92,23178
0,5255;92,64603;-0,00619;92,64603
0,5282;93,05982;-0,00590;93,05982
0,5308;93,47256;-0,00575;93,47256
0,5334;93,88391;-0,00561;93,88391
0,5360;94,29386;-0,00533;94,29386
0,5387;94,70229;-0,00518;94,70229
0,5413;95,10968;-0,00489;95,10968
0,5439;95,51648;-0,00475;95,51648
0,5466;95,92306;-0,00461;95,92306
0,5492;96,32928;-0,00433;96,32928
0,5518;96,73527;-0,00419;96,73527
0,5544;97,14126;-0,00390;97,14126
0,5571;97,54725;-0,00376;97,54725
0,5597;97,95312;-0,00361;97,95312
0,5623;98,35888;-0,00333;98,35888
0,5650;98,76441;-0,00320;98,76441
0,5676;99,16970;-0,00291;99,16970
0,5702;99,57441;-0,00277;99,57441
0,5728;99,97842;-0,00263;99,97842
0,5755;100,38162;-0,00234;100,38162
0,5781;100,78365;-0,00221;100,78365
0,5807;101,18452;-0,00193;101,18452
0,5835;101,61274;-0,00179;101,61274
0,5864;102,03992;-0,00150;102,03992
0,5892;102,46639;-0,00136;102,46639
0,5920;102,89264;-0,00109;102,89264
0,5948;103,31876;-0,00095;103,31876
0,5976;103,74372;-0,00066;103,74372
0,6004;104,16659;-0,00052;104,16659
0,6033;104,58609;-0,00024;104,58609
0,6061;105,00185;-0,00010;105,00185
0,6089;105,41483;0,00018;105,41483
0,6117;105,82617;0,00032;105,82617
0,6145;106,23728;0,00060;106,23728
0,6173;106,64840;0,00074;106,64840
0,6202;107,05951;0,00103;107,05951
0,6230;107,47085;0,00116;107,47085
0,6258;107,88208;0,00145;107,88208
0,6286;108,29331;0,00159;108,29331
0,6314;108,70395;0,00188;108,70395
0,6342;109,11379;0,00202;109,11379
0,6371;109,52257;0,00229;109,52257
0,6399;109,93077;0,00244;109,93077
0,6427;110,33862;0,00273;110,33862
0,6455;110,74636;0,00287;110,74636
0,6483;111,15386;0,00315;111,15386
0,6511;111,56090;0,00329;111,56090
0,6539;111,96747;0,00359;111,96747
0,6568;112,37300;0,00373;112,37300
0,6596;112,77759;0,00402;112,77759
0,6624;113,18044;0,00416;113,18044
0,6654;113,60552;0,00445;113,60552
0,6684;114,02129;0,00460;114,02129
0,6714;114,42390;0,00489;114,42390
0,6746;114,83501;0,00518;114,83501
0,6780;115,25102;0,00533;115,25102
0,6815;115,67039;0,00563;115,67039
0,6851;116,07312;0,00592;116,07312
0,6889;116,48470;0,00623;116,48470
0,6926;116,89022;0,00652;116,89022
0,6964;117,29622;0,00683;117,29622
0,7001;117,70837;0,00713;117,70837
0,7041;118,11844;0,00745;118,11844
0,7093;118,52373;0,00792;118,52373
0,8481;118,92378;0,04665;118,92378
1,2754;119,32524;0,63764;119,32524
1,2799;119,72785;0,64221;119,72785
1,2834;120,12919;0,64674;120,12919
1,2870;120,54751;0,65121;120,54751
1,2908;120,96759;0,65563;120,96759
1,2947;121,37335;0,65999;121,37335
1,2992;121,78411;0,66430;121,78411
1,3047;122,18696;0,67068;122,18696
1,3116;122,59621;0,67902;122,59621
1,3187;122,99766;0,68719;122,99766
1,3249;123,39969;0,69322;123,39969
1,3300;123,80510;0,69917;123,80510
1,3345;124,20632;0,70310;124,20632
1,3390;124,62220;0,70698;124,62220
1,3433;125,02866;0,71277;125,02866
1,3478;125,43115;0,71659;125,43115
1,3538;125,83191;0,72228;125,83191
1,5833;126,18936;1,32375;126,18936
1,6659;126,21799;1,92468;126,21799
1,7297;126,24057;2,53780;126,24057
1,7860;126,24919;3,15880;126,24919
1,8386;126,26700;3,77838;126,26700
1,8893;126,27608;4,38906;126,27608
1,9400;126,28224;4,99395;126,28224
1,9925;126,28259;5,60039;126,28259
2,0489;126,29773;6,21551;126,29773
2,1089;126,30413;6,82553;126,30413
2,1472;126,31309;7,18158;126,31309
2,1746;126,31041;7,43592;126,31041
