Part protocol
Network name;Part_OP10_MP-001_2020-08-26_09-31-37_0010_OK.csv
Protocol version;2.01.00

Index;Result information;Process values - curve related;Process values - EO related;Evaluation objects settings;Switch signal settings;Device information;Channel-X settings;Channel-Y settings;Cycle control settings;Evaluation settings;Trigger Y settings;Block settings;Measuring curve;Measuring points;Sequence;
Line;10;30;40;70;100;120;150;190;220;240;250;260;270;280;600;



Result information
Date;2020/08/26
Time;09:31:37
Cycle number;10
Total result;OK
Triggered switch signals
Part serial number;0010
Measuring program name;D57-Left
Measuring program number;1
Zero X offset;0,00;mm
Tara Y offset;0,0;kN









Process values - curve related
Block X;126,41;mm;XMIN-X;-0,14;mm
Block Y;7,4;kN;XMIN-Y;0,0;kN
Ref X;-;mm;XMAX-X;126,41;mm
Peak-peak X;126,55;mm;XMAX-Y;7,4;kN
Peak-peak Y;7,5;kN;YMIN-X;-0,14;mm
;;;YMIN-Y;0,0;kN
;;;YMAX-X;126,41;mm
;;;YMAX-Y;7,4;kN

Process values - EO related;Result;Entry;Exit;XMIN-X;XMIN-Y;XMAX-X;XMAX-Y;YMIN-Y;YMIN-X;YMAX-Y;YMAX-X
;;;;mm;kN;mm;kN;kN;mm;kN;mm
EO-01;OK;0,7;0,7;;;;;0,7;124,50;0,7;125,63;;;;;;
EO-02;OK;126,37;126,38;126,37;4,5;126,38;5,0;;;;;;;;;;
EO-03;None;
EO-04;None;
























Evaluation objects settings;Reaction;X reference;Y-Reference;XMin;XMax;YMin;YMax;Entry;Exit;Curve part;Catch zone X;Catch zone Y
EO-01;UNI-BOX;ABSOLUTE;-;124,50;125,70;0,5;3,0;LEFT;RIGHT;ANY;+50%;+50%
EO-02;UNI-BOX;ABSOLUTE;-;125,80;127,20;4,5;5,5;BELOW;ABOVE;ANY;+50%;+50%
EO-03;OFF
EO-04;OFF

























Switch signal settings;Channel;Threshold at;;Trigger from;Reference;Latch until
Type S1;OFF
Type S2;OFF

















Device information
Device type;maXYmos BL
Device type number;5867B1011
Device serial number;5182443
Firmware version;2.3.2 (r22473-BL_v2.3.x)
-
-
-
-
-
IP Address;10.0.0.18
Network name;OP10
Profibus address;10
-
-
-
Station name;OP10
Company name;
Comment;











Channel-X settings
Use the settings from global setup;True
Sensor-X type;Â±10V
Unit;mm
Used range from;0,00;mm
Used range to;200,00;mm
Decimal places;XXXX.XX
Scaling by;Teach-In
Point 1;0,00;mm;-0,350;%
Point 2;200,00;mm;10,000;%
Invert signal;FALSE
Filter;20 Hz
Test point;0,00;mm
Tolerance;2,00;mm
Enable sensor test by dig-input;FALSE
Zoom from;110,00;mm
Zoom to;133,11;mm























Channel-Y settings
Use the settings from global setup;True
Sensor-Y type;Strain Gage
Unit;kN
Used range from;0,0;kN
Used range to;20,0;kN
Decimal places;XXXXX.X
Scaling by;Teach-In
Point 1;0,0;kN;-0,01562;%
Point 2;20,0;kN;2,00000;%
Invert signal;FALSE
Filter;1 Hz
Piezo reset;-
Test point;0,0;kN
Tolerance;0,1;kN
Enable sensor test by dig-input;FALSE
Zoom from;0,0;kN
Zoom to;6,0;kN












Cycle control settings
Use the settings from global setup;True
Measuring function;Y (X)
Delta-X;Automatic
START condition;Dig-Input
STOP condition;Dig-Input
Cycle time out;20,00;s
Turning point RIGHT;YMAX
Turning point LEFT;NONE
Cut curve at;NONE










Evaluation settings
Capture only first NOK-EO for statistics;False
Hysteresis-X;0,0;%
Hysteresis-Y;100,0;%






Trigger Y settings
Threshold;1,9;kN
Value X at TRIGGER Y;0,00;mm
Approach from;BELOW






Block settings
Value X at block;XMAX
Block at;0,00;mm







Measuring curve
Number of measuring points;315
Ref. Graph on;ABSOLUTE
Curve segments;0;314;313;315;


Time;X(ABSOLUTE);Y;X (ABSOLUTE)


s;mm;kN;mm
0,0000;-0,14035;-0,03647;-0,14035
0,0968;0,26483;-0,03647;0,26483
0,1008;0,68386;-0,03647;0,68386
0,1036;1,10521;-0,03647;1,10521
0,1058;1,51853;-0,03647;1,51853
0,1079;1,95770;-0,03647;1,95770
0,1096;2,35961;-0,03647;2,35961
0,1113;2,79959;-0,03646;2,79959
0,1128;3,22199;-0,03646;3,22199
0,1143;3,67326;-0,03646;3,67326
0,1156;4,09147;-0,03646;4,09147
0,1169;4,53134;-0,03645;4,53134
0,1182;4,99180;-0,03645;4,99180
0,1194;5,40058;-0,03645;5,40058
0,1205;5,81880;-0,03644;5,81880
0,1216;6,24190;-0,03643;6,24190
0,1227;6,66500;-0,03643;6,66500
0,1239;7,08356;-0,03643;7,08356
0,1250;7,49362;-0,03643;7,49362
0,1263;7,95816;-0,03642;7,95816
0,1276;8,40582;-0,03641;8,40582
0,1289;8,83590;-0,03639;8,83590
0,1302;9,24865;-0,03639;9,24865
0,1317;9,69957;-0,03638;9,69957
0,1332;10,12907;-0,03637;10,12907
0,1348;10,53832;-0,03635;10,53832
0,1364;10,97818;-0,03635;10,97818
0,1381;11,40198;-0,03635;11,40198
0,1398;11,81612;-0,03633;11,81612
0,1415;12,22502;-0,03631;12,22502
0,1432;12,63124;-0,03629;12,63124
0,1449;13,03618;-0,03626;13,03618
0,1466;13,44182;-0,03624;13,44182
0,1483;13,85037;-0,03622;13,85037
0,1500;14,26347;-0,03619;14,26347
0,1516;14,68121;-0,03616;14,68121
0,1533;15,10292;-0,03612;15,10292
0,1550;15,52776;-0,03612;15,52776
0,1567;15,95564;-0,03610;15,95564
0,1584;16,38677;-0,03606;16,38677
0,1601;16,82116;-0,03602;16,82116
0,1618;17,25846;-0,03598;17,25846
0,1635;17,69762;-0,03594;17,69762
0,1652;18,13818;-0,03590;18,13818
0,1669;18,58049;-0,03585;18,58049
0,1685;19,02477;-0,03580;19,02477
0,1702;19,47092;-0,03575;19,47092
0,1719;19,91835;-0,03575;19,91835
0,1736;20,36647;-0,03570;20,36647
0,1753;20,81541;-0,03564;20,81541
0,1768;21,21570;-0,03559;21,21570
0,1783;21,61739;-0,03553;21,61739
0,1798;22,02058;-0,03547;22,02058
0,1813;22,42494;-0,03547;22,42494
0,1828;22,82965;-0,03540;22,82965
0,1843;23,23471;-0,03534;23,23471
0,1858;23,64012;-0,03526;23,64012
0,1873;24,04623;-0,03520;24,04623
0,1888;24,45327;-0,03520;24,45327
0,1903;24,86100;-0,03512;24,86100
0,1918;25,26874;-0,03504;25,26874
0,1933;25,67613;-0,03497;25,67613
0,1948;26,08281;-0,03488;26,08281
0,1963;26,48927;-0,03488;26,48927
0,1978;26,89561;-0,03480;26,89561
0,1993;27,30195;-0,03471;27,30195
0,2008;27,70794;-0,03462;27,70794
0,2023;28,11323;-0,03453;28,11323
0,2038;28,51724;-0,03453;28,51724
0,2053;28,91986;-0,03444;28,91986
0,2068;29,32143;-0,03434;29,32143
0,2083;29,72206;-0,03424;29,72206
0,2100;30,17147;-0,03414;30,17147
0,2117;30,61901;-0,03404;30,61901
0,2134;31,06434;-0,03393;31,06434
0,2151;31,50700;-0,03393;31,50700
0,2168;31,94721;-0,03383;31,94721
0,2185;32,38509;-0,03372;32,38509
0,2202;32,82065;-0,03360;32,82065
0,2219;33,25376;-0,03349;33,25376
0,2236;33,68408;-0,03337;33,68408
0,2252;34,11172;-0,03325;34,11172
0,2269;34,53680;-0,03313;34,53680
0,2286;34,95955;-0,03301;34,95955
0,2303;35,37985;-0,03289;35,37985
0,2320;35,79748;-0,03289;35,79748
0,2337;36,21244;-0,03276;36,21244
0,2354;36,62460;-0,03264;36,62460
0,2371;37,03443;-0,03251;37,03443
0,2388;37,44170;-0,03238;37,44170
0,2404;37,84641;-0,03224;37,84641
0,2421;38,24867;-0,03211;38,24867
0,2440;38,69284;-0,03198;38,69284
0,2459;39,13445;-0,03185;39,13445
0,2478;39,57361;-0,03171;39,57361
0,2496;40,01068;-0,03156;40,01068
0,2515;40,44566;-0,03142;40,44566
0,2534;40,87842;-0,03128;40,87842
0,2553;41,30920;-0,03113;41,30920
0,2572;41,73777;-0,03099;41,73777
0,2590;42,16413;-0,03085;42,16413
0,2609;42,58851;-0,03070;42,58851
0,2628;43,01091;-0,03055;43,01091
0,2647;43,43169;-0,03039;43,43169
0,2665;43,85083;-0,03024;43,85083
0,2684;44,26834;-0,03010;44,26834
0,2703;44,68446;-0,02994;44,68446
0,2722;45,09906;-0,02979;45,09906
0,2741;45,51227;-0,02963;45,51227
0,2759;45,92431;-0,02948;45,92431
0,2778;46,33508;-0,02932;46,33508
0,2797;46,74433;-0,02916;46,74433
0,2816;47,15230;-0,02900;47,15230
0,2834;47,55887;-0,02885;47,55887
0,2853;47,96381;-0,02869;47,96381
0,2872;48,36724;-0,02852;48,36724
0,2891;48,76939;-0,02837;48,76939
0,2910;49,17038;-0,02820;49,17038
0,2930;49,61024;-0,02804;49,61024
0,2951;50,04893;-0,02787;50,04893
0,2971;50,48635;-0,02772;50,48635
0,2992;50,92249;-0,02755;50,92249
0,3013;51,35758;-0,02738;51,35758
0,3033;51,79174;-0,02722;51,79174
0,3054;52,22485;-0,02688;52,22485
0,3075;52,65703;-0,02672;52,65703
0,3095;53,08828;-0,02655;53,08828
0,3116;53,51859;-0,02638;53,51859
0,3137;53,94798;-0,02622;53,94798
0,3157;54,37655;-0,02605;54,37655
0,3178;54,80431;-0,02588;54,80431
0,3199;55,23125;-0,02572;55,23125
0,3219;55,65726;-0,02555;55,65726
0,3240;56,08222;-0,02538;56,08222
0,3261;56,50602;-0,02504;56,50602
0,3281;56,92842;-0,02487;56,92842
0,3302;57,34955;-0,02470;57,34955
0,3323;57,76939;-0,02453;57,76939
0,3343;58,18818;-0,02436;58,18818
0,3364;58,60593;-0,02419;58,60593
0,3384;59,02263;-0,02402;59,02263
0,3405;59,43816;-0,02385;59,43816
0,3426;59,85218;-0,02368;59,85218
0,3446;60,26446;-0,02351;60,26446
0,3467;60,67510;-0,02317;60,67510
0,3488;61,08389;-0,02300;61,08389
0,3508;61,49128;-0,02283;61,49128
0,3529;61,89715;-0,02266;61,89715
0,3550;62,30163;-0,02249;62,30163
0,3570;62,70494;-0,02232;62,70494
0,3591;63,10709;-0,02214;63,10709
0,3612;63,50807;-0,02198;63,50807
0,3632;63,90813;-0,02181;63,90813
0,3655;64,34333;-0,02147;64,34333
0,3677;64,77749;-0,02130;64,77749
0,3700;65,21037;-0,02113;65,21037
0,3722;65,64185;-0,02096;65,64185
0,3745;66,07205;-0,02079;66,07205
0,3767;66,50074;-0,02045;66,50074
0,3790;66,92803;-0,02028;66,92803
0,3813;67,35381;-0,02012;67,35381
0,3835;67,77807;-0,01994;67,77807
0,3858;68,20106;-0,01978;68,20106
0,3880;68,62276;-0,01944;68,62276
0,3903;69,04319;-0,01928;69,04319
0,3925;69,46256;-0,01911;69,46256
0,3948;69,88101;-0,01894;69,88101
0,3970;70,29840;-0,01878;70,29840
0,3993;70,71487;-0,01843;70,71487
0,4015;71,13040;-0,01827;71,13040
0,4038;71,54489;-0,01810;71,54489
0,4060;71,95845;-0,01793;71,95845
0,4083;72,37142;-0,01777;72,37142
0,4105;72,78381;-0,01744;72,78381
0,4128;73,19597;-0,01728;73,19597
0,4150;73,60778;-0,01711;73,60778
0,4173;74,01913;-0,01694;74,01913
0,4196;74,42954;-0,01678;74,42954
0,4218;74,83891;-0,01645;74,83891
0,4241;75,24711;-0,01629;75,24711
0,4263;75,65450;-0,01612;75,65450
0,4286;76,06130;-0,01595;76,06130
0,4308;76,46787;-0,01579;76,46787
0,4331;76,87421;-0,01546;76,87421
0,4353;77,27997;-0,01530;77,27997
0,4376;77,68480;-0,01514;77,68480
0,4398;78,08823;-0,01497;78,08823
0,4421;78,49003;-0,01481;78,49003
0,4443;78,89032;-0,01448;78,89032
0,4468;79,32261;-0,01432;79,32261
0,4492;79,75398;-0,01416;79,75398
0,4517;80,18464;-0,01400;80,18464
0,4541;80,61461;-0,01367;80,61461
0,4565;81,04365;-0,01351;81,04365
0,4590;81,47105;-0,01335;81,47105
0,4614;81,89672;-0,01303;81,89672
0,4639;82,32017;-0,01286;82,32017
0,4663;82,74175;-0,01270;82,74175
0,4687;83,16136;-0,01238;83,16136
0,4712;83,57946;-0,01222;83,57946
0,4736;83,99569;-0,01206;83,99569
0,4761;84,41041;-0,01190;84,41041
0,4785;84,82327;-0,01158;84,82327
0,4809;85,23438;-0,01142;85,23438
0,4834;85,64351;-0,01126;85,64351
0,4858;86,05078;-0,01093;86,05078
0,4883;86,45608;-0,01078;86,45608
0,4907;86,85974;-0,01062;86,85974
0,4931;87,26200;-0,01031;87,26200
0,4956;87,66311;-0,01014;87,66311
0,4982;88,09377;-0,00998;88,09377
0,5008;88,52304;-0,00967;88,52304
0,5035;88,95045;-0,00951;88,95045
0,5061;89,37588;-0,00935;89,37588
0,5087;89,79863;-0,00904;89,79863
0,5114;90,21894;-0,00888;90,21894
0,5140;90,63703;-0,00856;90,63703
0,5166;91,05396;-0,00840;91,05396
0,5192;91,47031;-0,00824;91,47031
0,5219;91,88631;-0,00793;91,88631
0,5245;92,30185;-0,00777;92,30185
0,5271;92,71645;-0,00746;92,71645
0,5298;93,12978;-0,00731;93,12978
0,5324;93,54205;-0,00715;93,54205
0,5350;93,95316;-0,00683;93,95316
0,5376;94,36358;-0,00668;94,36358
0,5403;94,77341;-0,00636;94,77341
0,5429;95,18254;-0,00620;95,18254
0,5455;95,59121;-0,00606;95,59121
0,5482;95,99941;-0,00574;95,99941
0,5508;96,40692;-0,00558;96,40692
0,5534;96,81349;-0,00527;96,81349
0,5560;97,21890;-0,00512;97,21890
0,5587;97,62349;-0,00496;97,62349
0,5613;98,02762;-0,00465;98,02762
0,5639;98,43140;-0,00450;98,43140
0,5666;98,83483;-0,00419;98,83483
0,5692;99,23767;-0,00403;99,23767
0,5718;99,63971;-0,00388;99,63971
0,5744;100,04104;-0,00357;100,04104
0,5771;100,44133;-0,00341;100,44133
0,5799;100,86932;-0,00310;100,86932
0,5827;101,29649;-0,00295;101,29649
0,5855;101,72320;-0,00264;101,72320
0,5883;102,14968;-0,00248;102,14968
0,5911;102,57627;-0,00218;102,57627
0,5940;103,00310;-0,00202;103,00310
0,5968;103,42806;-0,00171;103,42806
0,5996;103,84837;-0,00156;103,84837
0,6024;104,26181;-0,00125;104,26181
0,6052;104,66791;-0,00109;104,66791
0,6082;105,09416;-0,00079;105,09416
0,6112;105,51470;-0,00063;105,51470
0,6142;105,93046;-0,00033;105,93046
0,6172;106,34169;-0,00001;106,34169
0,6202;106,74815;0,00014;106,74815
0,6233;107,14960;0,00045;107,14960
0,6264;107,56991;0,00077;107,56991
0,6296;107,98206;0,00091;107,98206
0,6328;108,38503;0,00123;108,38503
0,6362;108,80243;0,00154;108,80243
0,6396;109,21272;0,00186;109,21272
0,6430;109,61895;0,00202;109,61895
0,6463;110,02377;0,00234;110,02377
0,6497;110,42976;0,00266;110,42976
0,6531;110,83901;0,00299;110,83901
0,6565;111,25257;0,00331;111,25257
0,6599;111,67194;0,00348;111,67194
0,6631;112,07549;0,00381;112,07549
0,6662;112,48870;0,00414;112,48870
0,6694;112,91343;0,00432;112,91343
0,6724;113,32454;0,00466;113,32454
0,6754;113,74671;0,00501;113,74671
0,6783;114,15119;0,00519;114,15119
0,6811;114,56241;0,00554;114,56241
0,6839;114,97830;0,00572;114,97830
0,6867;115,39663;0,00608;115,39663
0,6895;115,81589;0,00626;115,81589
0,6923;116,23305;0,00663;116,23305
0,6952;116,64265;0,00682;116,64265
0,6982;117,06831;0,00720;117,06831
0,7012;117,48361;0,00739;117,48361
0,7044;117,90671;0,00778;117,90671
0,7079;118,31876;0,00818;118,31876
0,7130;118,72824;0,00878;118,72824
0,9456;119,12829;0,13914;119,12829
1,2858;119,53871;0,64041;119,53871
1,2907;119,94202;0,64473;119,94202
1,2948;120,34440;0,65112;120,34440
1,2989;120,75482;0,65530;120,75482
1,3032;121,16476;0,65944;121,16476
1,3081;121,56924;0,66553;121,56924
1,3145;121,97442;0,67152;121,97442
1,3226;122,37494;0,67935;122,37494
1,3312;122,77569;0,68896;122,77569
1,3380;123,18715;0,69653;123,18715
1,3440;123,59675;0,70219;123,59675
1,3498;123,99680;0,70784;123,99680
1,3560;124,40489;0,71350;124,40489
1,3631;124,81402;0,72110;124,81402
1,3710;125,22315;0,72880;125,22315
1,3795;125,63077;0,73861;125,63077
1,3892;126,03525;0,74873;126,03525
1,5933;126,27829;1,35476;126,27829
1,6778;126,30948;1,97081;126,30948
1,7416;126,32636;2,57414;126,32636
1,7979;126,34428;3,17946;126,34428
1,8505;126,35360;3,78167;126,35360
1,9031;126,36291;4,39777;126,36291
1,9556;126,37594;5,00942;126,37594
2,0101;126,38200;5,62332;126,38200
2,0664;126,39387;6,22663;126,39387
2,1265;126,39969;6,82777;126,39969
2,1922;126,40900;7,43184;126,40900
2,1924;126,40912;7,43184;126,40912
