Part protocol
Network name;Part_OP10_MP-001_2020-08-26_15-26-53_0026_OK.csv
Protocol version;2.01.00

Index;Result information;Process values - curve related;Process values - EO related;Evaluation objects settings;Switch signal settings;Device information;Channel-X settings;Channel-Y settings;Cycle control settings;Evaluation settings;Trigger Y settings;Block settings;Measuring curve;Measuring points;Sequence;
Line;10;30;40;70;100;120;150;190;220;240;250;260;270;280;600;



Result information
Date;2020/08/26
Time;15:26:53
Cycle number;26
Total result;OK
Triggered switch signals
Part serial number;0026
Measuring program name;D57-Left
Measuring program number;1
Zero X offset;0,00;mm
Tara Y offset;0,0;kN









Process values - curve related
Block X;126,39;mm;XMIN-X;-0,18;mm
Block Y;7,4;kN;XMIN-Y;0,0;kN
Ref X;-;mm;XMAX-X;126,39;mm
Peak-peak X;126,57;mm;XMAX-Y;7,4;kN
Peak-peak Y;7,5;kN;YMIN-X;-0,18;mm
;;;YMIN-Y;0,0;kN
;;;YMAX-X;126,39;mm
;;;YMAX-Y;7,5;kN

Process values - EO related;Result;Entry;Exit;XMIN-X;XMIN-Y;XMAX-X;XMAX-Y;YMIN-Y;YMIN-X;YMAX-Y;YMAX-X
;;;;mm;kN;mm;kN;kN;mm;kN;mm
EO-01;OK;0,7;0,7;;;;;0,7;124,50;0,7;125,45;;;;;;
EO-02;OK;126,35;126,37;126,35;4,5;126,37;5,4;;;;;;;;;;
EO-03;None;
EO-04;None;
























Evaluation objects settings;Reaction;X reference;Y-Reference;XMin;XMax;YMin;YMax;Entry;Exit;Curve part;Catch zone X;Catch zone Y
EO-01;UNI-BOX;ABSOLUTE;-;124,50;125,70;0,5;3,0;LEFT;RIGHT;ANY;+50%;+50%
EO-02;UNI-BOX;ABSOLUTE;-;125,80;127,20;4,5;5,5;BELOW;ABOVE;ANY;+50%;+50%
EO-03;OFF
EO-04;OFF

























Switch signal settings;Channel;Threshold at;;Trigger from;Reference;Latch until
Type S1;OFF
Type S2;OFF

















Device information
Device type;maXYmos BL
Device type number;5867B1011
Device serial number;5182443
Firmware version;2.3.2 (r22473-BL_v2.3.x)
-
-
-
-
-
IP Address;10.0.0.18
Network name;OP10
Profibus address;10
-
-
-
Station name;OP10
Company name;
Comment;











Channel-X settings
Use the settings from global setup;True
Sensor-X type;Â±10V
Unit;mm
Used range from;0,00;mm
Used range to;200,00;mm
Decimal places;XXXX.XX
Scaling by;Teach-In
Point 1;0,00;mm;-0,350;%
Point 2;200,00;mm;10,000;%
Invert signal;FALSE
Filter;20 Hz
Test point;0,00;mm
Tolerance;2,00;mm
Enable sensor test by dig-input;FALSE
Zoom from;110,00;mm
Zoom to;133,11;mm























Channel-Y settings
Use the settings from global setup;True
Sensor-Y type;Strain Gage
Unit;kN
Used range from;0,0;kN
Used range to;20,0;kN
Decimal places;XXXXX.X
Scaling by;Teach-In
Point 1;0,0;kN;-0,01562;%
Point 2;20,0;kN;2,00000;%
Invert signal;FALSE
Filter;1 Hz
Piezo reset;-
Test point;0,0;kN
Tolerance;0,1;kN
Enable sensor test by dig-input;FALSE
Zoom from;0,0;kN
Zoom to;6,0;kN












Cycle control settings
Use the settings from global setup;True
Measuring function;Y (X)
Delta-X;Automatic
START condition;Dig-Input
STOP condition;Dig-Input
Cycle time out;20,00;s
Turning point RIGHT;YMAX
Turning point LEFT;NONE
Cut curve at;NONE










Evaluation settings
Capture only first NOK-EO for statistics;False
Hysteresis-X;0,0;%
Hysteresis-Y;100,0;%






Trigger Y settings
Threshold;1,9;kN
Value X at TRIGGER Y;0,00;mm
Approach from;BELOW






Block settings
Value X at block;XMAX
Block at;0,00;mm







Measuring curve
Number of measuring points;316
Ref. Graph on;ABSOLUTE
Curve segments;0;316;315;316;


Time;X(ABSOLUTE);Y;X (ABSOLUTE)


s;mm;kN;mm
0,0000;-0,17922;-0,03464;-0,17922
0,0966;0,23363;-0,03464;0,23363
0,1005;0,64847;-0,03464;0,64847
0,1034;1,06307;-0,03464;1,06307
0,1056;1,46860;-0,03463;1,46860
0,1077;1,89822;-0,03463;1,89822
0,1095;2,33680;-0,03463;2,33680
0,1112;2,77061;-0,03463;2,77061
0,1127;3,18673;-0,03462;3,18673
0,1142;3,63148;-0,03462;3,63148
0,1156;4,04364;-0,03462;4,04364
0,1169;4,47733;-0,03461;4,47733
0,1182;4,93220;-0,03461;4,93220
0,1193;5,33691;-0,03461;5,33691
0,1204;5,75233;-0,03460;5,75233
0,1216;6,17404;-0,03460;6,17404
0,1227;6,59702;-0,03460;6,59702
0,1238;7,01605;-0,03460;7,01605
0,1249;7,42704;-0,03459;7,42704
0,1263;7,89228;-0,03458;7,89228
0,1276;8,33971;-0,03458;8,33971
0,1289;8,76851;-0,03457;8,76851
0,1302;9,17904;-0,03456;9,17904
0,1317;9,62693;-0,03455;9,62693
0,1332;10,05341;-0,03455;10,05341
0,1347;10,46045;-0,03453;10,46045
0,1364;10,89868;-0,03452;10,89868
0,1381;11,32143;-0,03450;11,32143
0,1398;11,73464;-0,03448;11,73464
0,1415;12,14307;-0,03447;12,14307
0,1432;12,54941;-0,03444;12,54941
0,1448;12,95529;-0,03442;12,95529
0,1465;13,36233;-0,03439;13,36233
0,1482;13,77239;-0,03439;13,77239
0,1499;14,18653;-0,03436;14,18653
0,1516;14,60509;-0,03434;14,60509
0,1533;15,02726;-0,03431;15,02726
0,1550;15,45257;-0,03428;15,45257
0,1567;15,88044;-0,03424;15,88044
0,1584;16,31111;-0,03421;16,31111
0,1600;16,74445;-0,03417;16,74445
0,1617;17,18012;-0,03412;17,18012
0,1634;17,61743;-0,03409;17,61743
0,1651;18,05612;-0,03409;18,05612
0,1668;18,49633;-0,03404;18,49633
0,1685;18,93841;-0,03399;18,93841
0,1702;19,38176;-0,03394;19,38176
0,1719;19,82616;-0,03389;19,82616
0,1736;20,27103;-0,03384;20,27103
0,1753;20,71671;-0,03378;20,71671
0,1769;21,16367;-0,03373;21,16367
0,1786;21,61226;-0,03366;21,61226
0,1803;22,06214;-0,03360;22,06214
0,1818;22,46254;-0,03360;22,46254
0,1833;22,86294;-0,03353;22,86294
0,1848;23,26323;-0,03347;23,26323
0,1863;23,66375;-0,03339;23,66375
0,1878;24,06485;-0,03332;24,06485
0,1893;24,46630;-0,03332;24,46630
0,1908;24,86799;-0,03324;24,86799
0,1923;25,26920;-0,03317;25,26920
0,1938;25,67007;-0,03309;25,67007
0,1953;26,07048;-0,03300;26,07048
0,1968;26,47088;-0,03300;26,47088
0,1983;26,87152;-0,03292;26,87152
0,1998;27,27215;-0,03284;27,27215
0,2014;27,67256;-0,03274;27,67256
0,2030;28,12208;-0,03265;28,12208
0,2047;28,57044;-0,03256;28,57044
0,2064;29,01751;-0,03256;29,01751
0,2081;29,46343;-0,03246;29,46343
0,2098;29,90795;-0,03236;29,90795
0,2115;30,35095;-0,03226;30,35095
0,2132;30,79186;-0,03216;30,79186
0,2149;31,23033;-0,03205;31,23033
0,2166;31,66670;-0,03195;31,66670
0,2182;32,10074;-0,03184;32,10074
0,2199;32,53280;-0,03173;32,53280
0,2216;32,96277;-0,03161;32,96277
0,2233;33,39064;-0,03161;33,39064
0,2250;33,81665;-0,03149;33,81665
0,2267;34,24057;-0,03137;34,24057
0,2284;34,66262;-0,03125;34,66262
0,2301;35,08269;-0,03113;35,08269
0,2318;35,50079;-0,03101;35,50079
0,2335;35,91656;-0,03088;35,91656
0,2351;36,33011;-0,03075;36,33011
0,2368;36,74146;-0,03062;36,74146
0,2385;37,15059;-0,03049;37,15059
0,2402;37,55740;-0,03049;37,55740
0,2419;37,96222;-0,03037;37,96222
0,2436;38,36507;-0,03024;38,36507
0,2453;38,76606;-0,03010;38,76606
0,2472;39,20964;-0,02996;39,20964
0,2490;39,65102;-0,02982;39,65102
0,2509;40,09018;-0,02968;40,09018
0,2528;40,52748;-0,02954;40,52748
0,2547;40,96304;-0,02939;40,96304
0,2565;41,39720;-0,02925;41,39720
0,2584;41,83007;-0,02911;41,83007
0,2603;42,26132;-0,02896;42,26132
0,2622;42,69082;-0,02881;42,69082
0,2641;43,11835;-0,02866;43,11835
0,2659;43,54389;-0,02851;43,54389
0,2678;43,96734;-0,02837;43,96734
0,2697;44,38870;-0,02821;44,38870
0,2716;44,80796;-0,02806;44,80796
0,2734;45,22524;-0,02790;45,22524
0,2753;45,64112;-0,02775;45,64112
0,2772;46,05584;-0,02760;46,05584
0,2791;46,46986;-0,02744;46,46986
0,2810;46,88295;-0,02728;46,88295
0,2828;47,29476;-0,02713;47,29476
0,2847;47,70506;-0,02696;47,70506
0,2866;48,11373;-0,02680;48,11373
0,2885;48,52077;-0,02664;48,52077
0,2903;48,92641;-0,02648;48,92641
0,2922;49,33054;-0,02632;49,33054
0,2941;49,73362;-0,02615;49,73362
0,2960;50,13565;-0,02600;50,13565
0,2979;50,53687;-0,02583;50,53687
0,2997;50,93727;-0,02566;50,93727
0,3018;51,37655;-0,02551;51,37655
0,3039;51,81455;-0,02534;51,81455
0,3059;52,25104;-0,02517;52,25104
0,3080;52,68578;-0,02484;52,68578
0,3101;53,11889;-0,02467;53,11889
0,3121;53,55037;-0,02451;53,55037
0,3142;53,98034;-0,02434;53,98034
0,3162;54,40914;-0,02417;54,40914
0,3183;54,83666;-0,02401;54,83666
0,3204;55,26326;-0,02384;55,26326
0,3224;55,68857;-0,02366;55,68857
0,3245;56,11237;-0,02350;56,11237
0,3266;56,53477;-0,02333;56,53477
0,3286;56,95578;-0,02300;56,95578
0,3307;57,37527;-0,02282;57,37527
0,3328;57,79371;-0,02265;57,79371
0,3348;58,21134;-0,02249;58,21134
0,3369;58,62816;-0,02232;58,62816
0,3390;59,04404;-0,02214;59,04404
0,3410;59,45865;-0,02198;59,45865
0,3431;59,87185;-0,02181;59,87185
0,3452;60,28331;-0,02164;60,28331
0,3472;60,69326;-0,02147;60,69326
0,3493;61,10158;-0,02114;61,10158
0,3514;61,50874;-0,02096;61,50874
0,3534;61,91473;-0,02079;61,91473
0,3555;62,31967;-0,02063;62,31967
0,3576;62,72368;-0,02046;62,72368
0,3596;63,12676;-0,02029;63,12676
0,3617;63,52868;-0,02012;63,52868
0,3637;63,92955;-0,01995;63,92955
0,3660;64,36522;-0,01978;64,36522
0,3683;64,79938;-0,01945;64,79938
0,3705;65,23190;-0,01928;65,23190
0,3728;65,66304;-0,01911;65,66304
0,3750;66,09300;-0,01894;66,09300
0,3773;66,52227;-0,01878;66,52227
0,3795;66,95096;-0,01844;66,95096
0,3818;67,37895;-0,01828;67,37895
0,3840;67,80601;-0,01811;67,80601
0,3863;68,23179;-0,01794;68,23179
0,3885;68,65617;-0,01778;68,65617
0,3908;69,07904;-0,01745;69,07904
0,3930;69,50062;-0,01729;69,50062
0,3953;69,92116;-0,01712;69,92116
0,3975;70,34101;-0,01695;70,34101
0,3998;70,76038;-0,01679;70,76038
0,4020;71,17917;-0,01646;71,17917
0,4043;71,59727;-0,01629;71,59727
0,4066;72,01409;-0,01614;72,01409
0,4088;72,42962;-0,01597;72,42962
0,4111;72,84399;-0,01580;72,84399
0,4133;73,25732;-0,01548;73,25732
0,4156;73,66994;-0,01532;73,66994
0,4178;74,08233;-0,01516;74,08233
0,4201;74,49414;-0,01500;74,49414
0,4223;74,90525;-0,01483;74,90525
0,4246;75,31532;-0,01451;75,31532
0,4268;75,72410;-0,01435;75,72410
0,4291;76,13161;-0,01419;76,13161
0,4313;76,53771;-0,01403;76,53771
0,4336;76,94266;-0,01387;76,94266
0,4358;77,34655;-0,01355;77,34655
0,4381;77,74986;-0,01339;77,74986
0,4403;78,15236;-0,01323;78,15236
0,4426;78,55405;-0,01307;78,55405
0,4449;78,95480;-0,01292;78,95480
0,4473;79,38768;-0,01259;79,38768
0,4497;79,81904;-0,01243;79,81904
0,4522;80,24889;-0,01228;80,24889
0,4546;80,67735;-0,01196;80,67735
0,4571;81,10464;-0,01181;81,10464
0,4595;81,53042;-0,01165;81,53042
0,4619;81,95491;-0,01133;81,95491
0,4644;82,37778;-0,01118;82,37778
0,4668;82,79890;-0,01103;82,79890
0,4693;83,21793;-0,01087;83,21793
0,4717;83,63486;-0,01056;83,63486
0,4741;84,05016;-0,01040;84,05016
0,4766;84,46395;-0,01025;84,46395
0,4790;84,87635;-0,00994;84,87635
0,4815;85,28769;-0,00978;85,28769
0,4839;85,69810;-0,00963;85,69810
0,4863;86,10747;-0,00931;86,10747
0,4888;86,51532;-0,00917;86,51532
0,4912;86,92108;-0,00901;86,92108
0,4937;87,32463;-0,00886;87,32463
0,4961;87,72643;-0,00856;87,72643
0,4985;88,12671;-0,00840;88,12671
0,5012;88,55645;-0,00825;88,55645
0,5038;88,98479;-0,00794;88,98479
0,5064;89,41196;-0,00779;89,41196
0,5091;89,83786;-0,00748;89,83786
0,5117;90,26189;-0,00733;90,26189
0,5143;90,68417;-0,00719;90,68417
0,5169;91,10471;-0,00688;91,10471
0,5196;91,52421;-0,00673;91,52421
0,5222;91,94323;-0,00643;91,94323
0,5248;92,36203;-0,00628;92,36203
0,5275;92,78059;-0,00613;92,78059
0,5301;93,19868;-0,00583;93,19868
0,5327;93,61573;-0,00568;93,61573
0,5353;94,03103;-0,00538;94,03103
0,5380;94,44459;-0,00523;94,44459
0,5406;94,85687;-0,00508;94,85687
0,5432;95,26844;-0,00478;95,26844
0,5459;95,67955;-0,00463;95,67955
0,5485;96,09032;-0,00433;96,09032
0,5511;96,50061;-0,00419;96,50061
0,5537;96,91010;-0,00404;96,91010
0,5564;97,31841;-0,00374;97,31841
0,5590;97,72557;-0,00359;97,72557
0,5616;98,13191;-0,00330;98,13191
0,5643;98,53767;-0,00315;98,53767
0,5669;98,94296;-0,00300;98,94296
0,5695;99,34778;-0,00271;99,34778
0,5721;99,75215;-0,00256;99,75215
0,5748;100,15581;-0,00226;100,15581
0,5774;100,55866;-0,00211;100,55866
0,5800;100,96057;-0,00196;100,96057
0,5827;101,36156;-0,00167;101,36156
0,5853;101,76161;-0,00152;101,76161
0,5881;102,18890;-0,00122;102,18890
0,5909;102,61526;-0,00108;102,61526
0,5937;103,04081;-0,00079;103,04081
0,5965;103,46496;-0,00064;103,46496
0,5994;103,88550;-0,00034;103,88550
0,6022;104,30022;-0,00020;104,30022
0,6050;104,70725;0,00010;104,70725
0,6080;105,13268;0,00025;105,13268
0,6110;105,55008;0,00054;105,55008
0,6140;105,96038;0,00084;105,96038
0,6170;106,36357;0,00099;106,36357
0,6202;106,78365;0,00128;106,78365
0,6234;107,19418;0,00158;107,19418
0,6266;107,59528;0,00173;107,59528
0,6300;108,01081;0,00202;108,01081
0,6333;108,41937;0,00233;108,41937
0,6367;108,82361;0,00263;108,82361
0,6401;109,22634;0,00278;109,22634
0,6435;109,63035;0,00309;109,63035
0,6469;110,03727;0,00339;110,03727
0,6502;110,44874;0,00371;110,44874
0,6536;110,86637;0,00402;110,86637
0,6568;111,26758;0,00418;111,26758
0,6600;111,67567;0,00450;111,67567
0,6632;112,09190;0,00482;112,09190
0,6664;112,51698;0,00499;112,51698
0,6694;112,92437;0,00532;112,92437
0,6724;113,33723;0,00565;113,33723
0,6754;113,75346;0,00582;113,75346
0,6784;114,17074;0,00616;114,17074
0,6814;114,58686;0,00634;114,58686
0,6844;114,99972;0,00669;114,99972
0,6874;115,40687;0,00705;115,40687
0,6904;115,80739;0,00723;115,80739
0,6936;116,22653;0,00760;116,22653
0,6968;116,64277;0,00797;116,64277
0,7000;117,06109;0,00815;117,06109
0,7030;117,46161;0,00854;117,46161
0,7060;117,86551;0,00893;117,86551
0,7092;118,26824;0,00912;118,26824
0,7131;118,67051;0,00953;118,67051
0,7203;119,07312;0,01037;119,07312
1,2523;119,31464;0,61071;119,31464
1,2803;119,72436;0,64434;119,72436
1,2841;120,12744;0,64895;120,12744
1,2872;120,54542;0,65351;120,54542
1,2902;120,95281;0,65801;120,95281
1,2934;121,35728;0,66025;121,35728
1,2972;121,77002;0,66468;121,77002
1,3017;122,17788;0,67123;122,17788
1,3077;122,57910;0,67769;122,57910
1,3178;122,98474;0,68825;122,98474
1,3259;123,39084;0,69859;123,39084
1,3317;123,80114;0,70471;123,80114
1,3364;124,21539;0,70875;124,21539
1,3407;124,63186;0,71479;124,63186
1,3451;125,04518;0,71879;125,04518
1,3496;125,45292;0,72277;125,45292
1,3552;125,85437;0,72870;125,85437
1,5388;126,25443;1,10869;126,25443
1,6372;126,29086;1,72171;126,29086
1,7048;126,31018;2,33054;126,31018
1,7611;126,32368;2,93207;126,32368
1,8137;126,33672;3,54414;126,33672
1,8644;126,34603;4,15684;126,34603
1,9150;126,35709;4,77132;126,35709
1,9657;126,36721;5,37164;126,36721
2,0202;126,37234;5,98816;126,37234
2,0784;126,38153;6,60604;126,38153
2,1403;126,38805;7,21273;126,38805
2,1617;126,39049;7,40317;126,39049
2,1666;126,39038;7,45410;126,39038
