Part protocol
Network name;Part_OP10_MP-001_2020-08-26_15-24-04_0025_OK.csv
Protocol version;2.01.00

Index;Result information;Process values - curve related;Process values - EO related;Evaluation objects settings;Switch signal settings;Device information;Channel-X settings;Channel-Y settings;Cycle control settings;Evaluation settings;Trigger Y settings;Block settings;Measuring curve;Measuring points;Sequence;
Line;10;30;40;70;100;120;150;190;220;240;250;260;270;280;600;



Result information
Date;2020/08/26
Time;15:24:04
Cycle number;25
Total result;OK
Triggered switch signals
Part serial number;0025
Measuring program name;D57-Left
Measuring program number;1
Zero X offset;0,00;mm
Tara Y offset;0,0;kN









Process values - curve related
Block X;126,38;mm;XMIN-X;-0,19;mm
Block Y;7,4;kN;XMIN-Y;0,0;kN
Ref X;-;mm;XMAX-X;126,38;mm
Peak-peak X;126,56;mm;XMAX-Y;7,4;kN
Peak-peak Y;7,4;kN;YMIN-X;-0,19;mm
;;;YMIN-Y;0,0;kN
;;;YMAX-X;126,38;mm
;;;YMAX-Y;7,4;kN

Process values - EO related;Result;Entry;Exit;XMIN-X;XMIN-Y;XMAX-X;XMAX-Y;YMIN-Y;YMIN-X;YMAX-Y;YMAX-X
;;;;mm;kN;mm;kN;kN;mm;kN;mm
EO-01;OK;0,7;0,7;;;;;0,7;124,50;0,7;125,49;;;;;;
EO-02;OK;126,33;126,35;126,33;4,5;126,34;5,0;;;;;;;;;;
EO-03;None;
EO-04;None;
























Evaluation objects settings;Reaction;X reference;Y-Reference;XMin;XMax;YMin;YMax;Entry;Exit;Curve part;Catch zone X;Catch zone Y
EO-01;UNI-BOX;ABSOLUTE;-;124,50;125,70;0,5;3,0;LEFT;RIGHT;ANY;+50%;+50%
EO-02;UNI-BOX;ABSOLUTE;-;125,80;127,20;4,5;5,5;BELOW;ABOVE;ANY;+50%;+50%
EO-03;OFF
EO-04;OFF

























Switch signal settings;Channel;Threshold at;;Trigger from;Reference;Latch until
Type S1;OFF
Type S2;OFF

















Device information
Device type;maXYmos BL
Device type number;5867B1011
Device serial number;5182443
Firmware version;2.3.2 (r22473-BL_v2.3.x)
-
-
-
-
-
IP Address;10.0.0.18
Network name;OP10
Profibus address;10
-
-
-
Station name;OP10
Company name;
Comment;











Channel-X settings
Use the settings from global setup;True
Sensor-X type;Â±10V
Unit;mm
Used range from;0,00;mm
Used range to;200,00;mm
Decimal places;XXXX.XX
Scaling by;Teach-In
Point 1;0,00;mm;-0,350;%
Point 2;200,00;mm;10,000;%
Invert signal;FALSE
Filter;20 Hz
Test point;0,00;mm
Tolerance;2,00;mm
Enable sensor test by dig-input;FALSE
Zoom from;110,00;mm
Zoom to;133,11;mm























Channel-Y settings
Use the settings from global setup;True
Sensor-Y type;Strain Gage
Unit;kN
Used range from;0,0;kN
Used range to;20,0;kN
Decimal places;XXXXX.X
Scaling by;Teach-In
Point 1;0,0;kN;-0,01562;%
Point 2;20,0;kN;2,00000;%
Invert signal;FALSE
Filter;1 Hz
Piezo reset;-
Test point;0,0;kN
Tolerance;0,1;kN
Enable sensor test by dig-input;FALSE
Zoom from;0,0;kN
Zoom to;6,0;kN












Cycle control settings
Use the settings from global setup;True
Measuring function;Y (X)
Delta-X;Automatic
START condition;Dig-Input
STOP condition;Dig-Input
Cycle time out;20,00;s
Turning point RIGHT;YMAX
Turning point LEFT;NONE
Cut curve at;NONE










Evaluation settings
Capture only first NOK-EO for statistics;False
Hysteresis-X;0,0;%
Hysteresis-Y;100,0;%






Trigger Y settings
Threshold;1,9;kN
Value X at TRIGGER Y;0,00;mm
Approach from;BELOW






Block settings
Value X at block;XMAX
Block at;0,00;mm







Measuring curve
Number of measuring points;315
Ref. Graph on;ABSOLUTE
Curve segments;0;314;313;315;


Time;X(ABSOLUTE);Y;X (ABSOLUTE)


s;mm;kN;mm
0,0000;-0,18702;-0,03478;-0,18702
0,0974;0,22828;-0,03478;0,22828
0,1013;0,64533;-0,03477;0,64533
0,1041;1,06179;-0,03477;1,06179
0,1064;1,46883;-0,03477;1,46883
0,1085;1,90008;-0,03477;1,90008
0,1103;2,34052;-0,03477;2,34052
0,1120;2,77608;-0,03477;2,77608
0,1135;3,19417;-0,03476;3,19417
0,1150;3,64067;-0,03476;3,64067
0,1164;4,05469;-0,03476;4,05469
0,1177;4,49025;-0,03476;4,49025
0,1190;4,94664;-0,03475;4,94664
0,1201;5,35274;-0,03475;5,35274
0,1212;5,76909;-0,03475;5,76909
0,1224;6,19185;-0,03474;6,19185
0,1235;6,61599;-0,03474;6,61599
0,1246;7,03688;-0,03473;7,03688
0,1257;7,45044;-0,03473;7,45044
0,1269;7,85364;-0,03473;7,85364
0,1282;8,30863;-0,03473;8,30863
0,1295;8,74546;-0,03473;8,74546
0,1308;9,16356;-0,03472;9,16356
0,1323;9,61786;-0,03470;9,61786
0,1338;10,04747;-0,03469;10,04747
0,1353;10,45451;-0,03468;10,45451
0,1370;10,89030;-0,03468;10,89030
0,1387;11,30909;-0,03466;11,30909
0,1404;11,71753;-0,03464;11,71753
0,1421;12,11979;-0,03463;12,11979
0,1440;12,56350;-0,03460;12,56350
0,1458;13,00708;-0,03459;13,00708
0,1475;13,40935;-0,03457;13,40935
0,1492;13,81650;-0,03454;13,81650
0,1509;14,22901;-0,03451;14,22901
0,1526;14,64641;-0,03448;14,64641
0,1543;15,06800;-0,03446;15,06800
0,1560;15,49343;-0,03442;15,49343
0,1577;15,92281;-0,03442;15,92281
0,1593;16,35616;-0,03438;16,35616
0,1610;16,79241;-0,03435;16,79241
0,1627;17,23076;-0,03431;17,23076
0,1644;17,67062;-0,03427;17,67062
0,1661;18,11223;-0,03423;18,11223
0,1678;18,55581;-0,03418;18,55581
0,1695;19,00138;-0,03413;19,00138
0,1712;19,44811;-0,03409;19,44811
0,1729;19,89553;-0,03403;19,89553
0,1746;20,34366;-0,03403;20,34366
0,1762;20,79272;-0,03398;20,79272
0,1777;21,19324;-0,03392;21,19324
0,1792;21,59492;-0,03386;21,59492
0,1807;21,99719;-0,03380;21,99719
0,1822;22,39945;-0,03373;22,39945
0,1838;22,80160;-0,03373;22,80160
0,1853;23,20375;-0,03367;23,20375
0,1868;23,60625;-0,03360;23,60625
0,1883;24,00956;-0,03352;24,00956
0,1898;24,41346;-0,03345;24,41346
0,1913;24,81735;-0,03345;24,81735
0,1928;25,22102;-0,03337;25,22102
0,1943;25,62410;-0,03330;25,62410
0,1958;26,02694;-0,03322;26,02694
0,1973;26,42991;-0,03313;26,42991
0,1988;26,83299;-0,03313;26,83299
0,2003;27,23584;-0,03304;27,23584
0,2018;27,63822;-0,03296;27,63822
0,2033;28,03944;-0,03286;28,03944
0,2048;28,43949;-0,03277;28,43949
0,2065;28,88820;-0,03277;28,88820
0,2082;29,33551;-0,03268;29,33551
0,2098;29,78119;-0,03258;29,78119
0,2115;30,22489;-0,03248;30,22489
0,2132;30,66592;-0,03237;30,66592
0,2149;31,10427;-0,03227;31,10427
0,2166;31,54017;-0,03216;31,54017
0,2183;31,97387;-0,03205;31,97387
0,2200;32,40546;-0,03194;32,40546
0,2217;32,83497;-0,03183;32,83497
0,2234;33,26237;-0,03183;33,26237
0,2251;33,68757;-0,03171;33,68757
0,2267;34,11079;-0,03160;34,11079
0,2284;34,53191;-0,03148;34,53191
0,2301;34,95105;-0,03136;34,95105
0,2318;35,36810;-0,03123;35,36810
0,2335;35,78317;-0,03111;35,78317
0,2352;36,19614;-0,03098;36,19614
0,2369;36,60714;-0,03085;36,60714
0,2386;37,01615;-0,03072;37,01615
0,2403;37,42342;-0,03072;37,42342
0,2420;37,82872;-0,03059;37,82872
0,2436;38,23203;-0,03045;38,23203
0,2453;38,63371;-0,03032;38,63371
0,2472;39,07788;-0,03018;39,07788
0,2491;39,52019;-0,03004;39,52019
0,2510;39,96075;-0,02990;39,96075
0,2528;40,39991;-0,02976;40,39991
0,2547;40,83733;-0,02962;40,83733
0,2566;41,27312;-0,02948;41,27312
0,2585;41,70704;-0,02933;41,70704
0,2603;42,13899;-0,02918;42,13899
0,2622;42,56896;-0,02903;42,56896
0,2641;42,99730;-0,02888;42,99730
0,2660;43,42377;-0,02874;43,42377
0,2679;43,84862;-0,02858;43,84862
0,2697;44,27172;-0,02843;44,27172
0,2716;44,69319;-0,02827;44,69319
0,2735;45,11326;-0,02812;45,11326
0,2754;45,53183;-0,02797;45,53183
0,2772;45,94899;-0,02781;45,94899
0,2791;46,36476;-0,02765;46,36476
0,2810;46,77913;-0,02750;46,77913
0,2829;47,19187;-0,02734;47,19187
0,2848;47,60298;-0,02717;47,60298
0,2866;48,01246;-0,02701;48,01246
0,2885;48,42043;-0,02686;48,42043
0,2904;48,82712;-0,02669;48,82712
0,2923;49,23253;-0,02653;49,23253
0,2941;49,63689;-0,02637;49,63689
0,2960;50,03997;-0,02620;50,03997
0,2979;50,44189;-0,02603;50,44189
0,2998;50,84276;-0,02588;50,84276
0,3018;51,28239;-0,02571;51,28239
0,3039;51,72074;-0,02554;51,72074
0,3060;52,15792;-0,02538;52,15792
0,3080;52,59417;-0,02504;52,59417
0,3101;53,02938;-0,02488;53,02938
0,3122;53,46365;-0,02470;53,46365
0,3142;53,89688;-0,02453;53,89688
0,3163;54,32894;-0,02437;54,32894
0,3184;54,75973;-0,02420;54,75973
0,3204;55,18923;-0,02403;55,18923
0,3225;55,61745;-0,02386;55,61745
0,3246;56,04428;-0,02369;56,04428
0,3266;56,46971;-0,02352;56,46971
0,3287;56,89374;-0,02318;56,89374
0,3308;57,31637;-0,02301;57,31637
0,3328;57,73773;-0,02284;57,73773
0,3349;58,15815;-0,02267;58,15815
0,3369;58,57729;-0,02250;58,57729
0,3390;58,99527;-0,02233;58,99527
0,3411;59,41151;-0,02215;59,41151
0,3431;59,82634;-0,02199;59,82634
0,3452;60,23955;-0,02181;60,23955
0,3473;60,65148;-0,02165;60,65148
0,3493;61,06201;-0,02130;61,06201
0,3514;61,47137;-0,02114;61,47137
0,3535;61,87981;-0,02096;61,87981
0,3555;62,28731;-0,02079;62,28731
0,3576;62,69377;-0,02062;62,69377
0,3597;63,09906;-0,02045;63,09906
0,3617;63,50284;-0,02028;63,50284
0,3638;63,90545;-0,02011;63,90545
0,3659;64,30667;-0,01994;64,30667
0,3679;64,70684;-0,01977;64,70684
0,3702;65,14205;-0,01943;65,14205
0,3724;65,57609;-0,01927;65,57609
0,3747;66,00873;-0,01909;66,00873
0,3769;66,44010;-0,01892;66,44010
0,3792;66,86960;-0,01876;66,86960
0,3814;67,29759;-0,01841;67,29759
0,3837;67,72430;-0,01825;67,72430
0,3859;68,14973;-0,01808;68,14973
0,3882;68,57423;-0,01791;68,57423
0,3905;68,99791;-0,01775;68,99791
0,3927;69,42089;-0,01741;69,42089
0,3950;69,84318;-0,01725;69,84318
0,3972;70,26465;-0,01708;70,26465
0,3995;70,68496;-0,01691;70,68496
0,4017;71,10387;-0,01675;71,10387
0,4040;71,52126;-0,01641;71,52126
0,4062;71,93703;-0,01625;71,93703
0,4085;72,35140;-0,01608;72,35140
0,4107;72,76473;-0,01592;72,76473
0,4130;73,17712;-0,01576;73,17712
0,4152;73,58893;-0,01543;73,58893
0,4175;74,00016;-0,01527;74,00016
0,4197;74,41057;-0,01510;74,41057
0,4220;74,81994;-0,01494;74,81994
0,4242;75,22802;-0,01478;75,22802
0,4265;75,63518;-0,01445;75,63518
0,4288;76,04128;-0,01429;76,04128
0,4310;76,44646;-0,01413;76,44646
0,4333;76,85094;-0,01396;76,85094
0,4355;77,25460;-0,01380;77,25460
0,4378;77,65745;-0,01348;77,65745
0,4400;78,05913;-0,01332;78,05913
0,4423;78,45988;-0,01316;78,45988
0,4447;78,89299;-0,01300;78,89299
0,4472;79,32494;-0,01268;79,32494
0,4496;79,75584;-0,01252;79,75584
0,4520;80,18569;-0,01236;80,18569
0,4545;80,61426;-0,01205;80,61426
0,4569;81,04155;-0,01189;81,04155
0,4594;81,46721;-0,01173;81,46721
0,4618;81,89113;-0,01156;81,89113
0,4642;82,31330;-0,01125;82,31330
0,4667;82,73384;-0,01109;82,73384
0,4691;83,15321;-0,01093;83,15321
0,4716;83,57143;-0,01062;83,57143
0,4740;83,98859;-0,01046;83,98859
0,4764;84,40494;-0,01031;84,40494
0,4789;84,82036;-0,00999;84,82036
0,4813;85,23496;-0,00984;85,23496
0,4838;85,64840;-0,00969;85,64840
0,4862;86,06056;-0,00953;86,06056
0,4886;86,47109;-0,00921;86,47109
0,4911;86,87999;-0,00906;86,87999
0,4935;87,28738;-0,00891;87,28738
0,4960;87,69314;-0,00859;87,69314
0,4984;88,09761;-0,00844;88,09761
0,5008;88,50081;-0,00829;88,50081
0,5033;88,90273;-0,00797;88,90273
0,5057;89,30313;-0,00782;89,30313
0,5084;89,73252;-0,00767;89,73252
0,5110;90,15981;-0,00736;90,15981
0,5136;90,58547;-0,00720;90,58547
0,5162;91,01008;-0,00705;91,01008
0,5189;91,43435;-0,00674;91,43435
0,5215;91,85815;-0,00659;91,85815
0,5241;92,28125;-0,00628;92,28125
0,5268;92,70318;-0,00613;92,70318
0,5294;93,12349;-0,00597;93,12349
0,5320;93,54194;-0,00567;93,54194
0,5346;93,95840;-0,00552;93,95840
0,5373;94,37347;-0,00521;94,37347
0,5399;94,78714;-0,00507;94,78714
0,5425;95,19930;-0,00491;95,19930
0,5452;95,61018;-0,00460;95,61018
0,5478;96,01966;-0,00446;96,01966
0,5504;96,42810;-0,00415;96,42810
0,5530;96,83514;-0,00400;96,83514
0,5557;97,24113;-0,00384;97,24113
0,5583;97,64642;-0,00355;97,64642
0,5609;98,05171;-0,00339;98,05171
0,5636;98,45712;-0,00309;98,45712
0,5662;98,86253;-0,00295;98,86253
0,5688;99,26759;-0,00279;99,26759
0,5714;99,67172;-0,00249;99,67172
0,5741;100,07468;-0,00234;100,07468
0,5767;100,47625;-0,00204;100,47625
0,5793;100,87677;-0,00189;100,87677
0,5821;101,30464;-0,00159;101,30464
0,5850;101,73193;-0,00144;101,73193
0,5878;102,15876;-0,00114;102,15876
0,5906;102,58500;-0,00099;102,58500
0,5934;103,01031;-0,00069;103,01031
0,5962;103,43236;-0,00054;103,43236
0,5990;103,84825;-0,00024;103,84825
0,6018;104,25552;-0,00010;104,25552
0,6049;104,67967;0,00020;104,67967
0,6079;105,09497;0,00036;105,09497
0,6109;105,50329;0,00065;105,50329
0,6139;105,90567;0,00080;105,90567
0,6171;106,32679;0,00110;106,32679
0,6202;106,74186;0,00140;106,74186
0,6234;107,15076;0,00170;107,15076
0,6266;107,55349;0,00185;107,55349
0,6300;107,97322;0,00215;107,97322
0,6334;108,38759;0,00246;108,38759
0,6368;108,79824;0,00277;108,79824
0,6401;109,20749;0,00292;109,20749
0,6435;109,61755;0,00323;109,61755
0,6469;110,03041;0,00353;110,03041
0,6503;110,44839;0,00385;110,44839
0,6535;110,84937;0,00417;110,84937
0,6567;111,25839;0,00433;111,25839
0,6599;111,67672;0,00465;111,67672
0,6629;112,07968;0,00498;112,07968
0,6659;112,49103;0,00514;112,49103
0,6689;112,91017;0,00548;112,91017
0,6719;113,33630;0,00564;113,33630
0,6747;113,74147;0,00599;113,74147
0,6775;114,15107;0,00616;114,15107
0,6803;114,56346;0,00651;114,56346
0,6831;114,97655;0,00668;114,97655
0,6860;115,38871;0,00704;115,38871
0,6888;115,79796;0,00722;115,79796
0,6916;116,20011;0,00758;116,20011
0,6946;116,61704;0,00776;116,61704
0,6976;117,02257;0,00813;117,02257
0,7008;117,44532;0,00851;117,44532
0,7040;117,84770;0,00871;117,84770
0,7079;118,26102;0,00930;118,26102
0,7141;118,66224;0,00991;118,66224
1,2486;118,96348;0,61003;118,96348
1,2790;119,37517;0,64802;119,37517
1,2830;119,77581;0,65255;119,77581
1,2865;120,19670;0,65704;120,19670
1,2901;120,61433;0,66150;120,61433
1,2939;121,02486;0,66590;121,02486
1,2980;121,43213;0,67027;121,43213
1,3031;121,83567;0,67676;121,83567
1,3106;122,23899;0,68529;122,23899
1,3185;122,63950;0,69374;122,63950
1,3247;123,04538;0,70001;123,04538
1,3295;123,45928;0,70626;123,45928
1,3337;123,86155;0,71042;123,86155
1,3378;124,27406;0,71456;124,27406
1,3419;124,67435;0,71868;124,67435
1,3462;125,07533;0,72486;125,07533
1,3511;125,48854;0,72897;125,48854
1,3577;125,89220;0,73716;125,89220
1,5884;126,24220;1,34599;126,24220
1,6729;126,27561;1,94857;126,27561
1,7367;126,29249;2,54945;126,29249
1,7931;126,30995;3,15889;126,30995
1,8456;126,32077;3,76887;126,32077
1,8963;126,33195;4,37224;126,33195
1,9489;126,34300;4,99395;126,34300
2,0015;126,35266;5,59645;126,35266
2,0578;126,35965;6,20930;126,35965
2,1179;126,36954;6,81874;126,36954
2,1798;126,37548;7,39676;126,37548
2,1800;126,37559;7,39676;126,37559
