Part protocol
Network name;Part_OP10_MP-002_2020-08-26_15-03-17_0019_OK.csv
Protocol version;2.01.00

Index;Result information;Process values - curve related;Process values - EO related;Evaluation objects settings;Switch signal settings;Device information;Channel-X settings;Channel-Y settings;Cycle control settings;Evaluation settings;Trigger Y settings;Block settings;Measuring curve;Measuring points;Sequence;
Line;10;30;40;70;100;120;150;190;220;240;250;260;270;280;570;



Result information
Date;2020/08/26
Time;15:03:17
Cycle number;19
Total result;OK
Triggered switch signals
Part serial number;0019
Measuring program name;D57-Right
Measuring program number;2
Zero X offset;0,00;mm
Tara Y offset;0,0;kN









Process values - curve related
Block X;116,11;mm;XMIN-X;-0,01;mm
Block Y;4,8;kN;XMIN-Y;0,0;kN
Ref X;-;mm;XMAX-X;116,11;mm
Peak-peak X;116,11;mm;XMAX-Y;4,8;kN
Peak-peak Y;4,8;kN;YMIN-X;0,41;mm
;;;YMIN-Y;0,0;kN
;;;YMAX-X;116,11;mm
;;;YMAX-Y;4,8;kN

Process values - EO related;Result;Entry;Exit;XMIN-X;XMIN-Y;XMAX-X;XMAX-Y;YMIN-Y;YMIN-X;YMAX-Y;YMAX-X
;;;;mm;kN;mm;kN;kN;mm;kN;mm
EO-01;OK;0,7;0,7;;;;;0,7;115,00;0,7;115,35;;;;;;
EO-02;OK;;116,09;116,07;2,3;116,08;3,1;2,3;116,07;;;;;;;;
EO-03;None;
EO-04;None;
























Evaluation objects settings;Reaction;X reference;Y-Reference;XMin;XMax;YMin;YMax;Entry;Exit;Curve part;Catch zone X;Catch zone Y
EO-01;UNI-BOX;ABSOLUTE;-;115,00;115,50;0,4;2,0;LEFT;RIGHT;ANY;+50%;+50%
EO-02;UNI-BOX;ABSOLUTE;-;115,40;117,10;2,3;3,3;ANY;ABOVE;ANY;+50%;+50%
EO-03;OFF
EO-04;OFF

























Switch signal settings;Channel;Threshold at;;Trigger from;Reference;Latch until
Type S1;OFF
Type S2;OFF

















Device information
Device type;maXYmos BL
Device type number;5867B1011
Device serial number;5182443
Firmware version;2.3.2 (r22473-BL_v2.3.x)
-
-
-
-
-
IP Address;10.0.0.18
Network name;OP10
Profibus address;10
-
-
-
Station name;OP10
Company name;
Comment;











Channel-X settings
Use the settings from global setup;True
Sensor-X type;Â±10V
Unit;mm
Used range from;0,00;mm
Used range to;200,00;mm
Decimal places;XXXX.XX
Scaling by;Teach-In
Point 1;0,00;mm;-0,350;%
Point 2;200,00;mm;10,000;%
Invert signal;FALSE
Filter;20 Hz
Test point;0,00;mm
Tolerance;2,00;mm
Enable sensor test by dig-input;FALSE
Zoom from;100,00;mm
Zoom to;120,00;mm























Channel-Y settings
Use the settings from global setup;True
Sensor-Y type;Strain Gage
Unit;kN
Used range from;0,0;kN
Used range to;20,0;kN
Decimal places;XXXXX.X
Scaling by;Teach-In
Point 1;0,0;kN;-0,01562;%
Point 2;20,0;kN;2,00000;%
Invert signal;FALSE
Filter;1 Hz
Piezo reset;-
Test point;0,0;kN
Tolerance;0,1;kN
Enable sensor test by dig-input;FALSE
Zoom from;0,0;kN
Zoom to;5,0;kN












Cycle control settings
Use the settings from global setup;True
Measuring function;Y (X)
Delta-X;Automatic
START condition;Dig-Input
STOP condition;Dig-Input
Cycle time out;20,00;s
Turning point RIGHT;YMAX
Turning point LEFT;NONE
Cut curve at;NONE










Evaluation settings
Capture only first NOK-EO for statistics;False
Hysteresis-X;0,0;%
Hysteresis-Y;100,0;%






Trigger Y settings
Threshold;1,8;kN
Value X at TRIGGER Y;0,00;mm
Approach from;BELOW






Block settings
Value X at block;XMAX
Block at;0,00;mm







Measuring curve
Number of measuring points;287
Ref. Graph on;ABSOLUTE
Curve segments;0;286;285;287;


Time;X(ABSOLUTE);Y;X (ABSOLUTE)


s;mm;kN;mm
0,0000;-0,00800;-0,03547;-0,00800
0,1085;0,40637;-0,03551;0,40637
0,1117;0,81084;-0,03550;0,81084
0,1140;1,21579;-0,03550;1,21579
0,1158;1,63435;-0,03550;1,63435
0,1175;2,07398;-0,03549;2,07398
0,1190;2,51070;-0,03548;2,51070
0,1203;2,92146;-0,03548;2,92146
0,1217;3,35061;-0,03547;3,35061
0,1230;3,78989;-0,03547;3,78989
0,1243;4,23231;-0,03547;4,23231
0,1256;4,67299;-0,03546;4,67299
0,1269;5,10878;-0,03545;5,10878
0,1282;5,53735;-0,03543;5,53735
0,1295;5,95696;-0,03543;5,95696
0,1309;6,36609;-0,03541;6,36609
0,1324;6,82120;-0,03539;6,82120
0,1339;7,26421;-0,03537;7,26421
0,1354;7,69755;-0,03537;7,69755
0,1369;8,12321;-0,03535;8,12321
0,1384;8,54270;-0,03532;8,54270
0,1399;8,95777;-0,03528;8,95777
0,1414;9,37005;-0,03524;9,37005
0,1429;9,78093;-0,03524;9,78093
0,1444;10,19157;-0,03521;10,19157
0,1459;10,60292;-0,03516;10,60292
0,1474;11,01508;-0,03511;11,01508
0,1489;11,42817;-0,03507;11,42817
0,1504;11,84184;-0,03507;11,84184
0,1519;12,25563;-0,03501;12,25563
0,1534;12,66895;-0,03495;12,66895
0,1549;13,08100;-0,03488;13,08100
0,1564;13,49094;-0,03482;13,49094
0,1579;13,89810;-0,03482;13,89810
0,1594;14,30188;-0,03474;14,30188
0,1611;14,75117;-0,03467;14,75117
0,1628;15,19487;-0,03459;15,19487
0,1645;15,63275;-0,03450;15,63275
0,1662;16,06458;-0,03441;16,06458
0,1678;16,49013;-0,03431;16,49013
0,1695;16,90939;-0,03421;16,90939
0,1712;17,32236;-0,03421;17,32236
0,1729;17,72928;-0,03410;17,72928
0,1746;18,13027;-0,03398;18,13027
0,1765;18,56931;-0,03387;18,56931
0,1784;19,00231;-0,03374;19,00231
0,1802;19,42983;-0,03361;19,42983
0,1821;19,85258;-0,03348;19,85258
0,1840;20,27103;-0,03335;20,27103
0,1859;20,68575;-0,03320;20,68575
0,1877;21,09721;-0,03305;21,09721
0,1896;21,50599;-0,03289;21,50599
0,1915;21,91245;-0,03273;21,91245
0,1934;22,31739;-0,03256;22,31739
0,1953;22,72117;-0,03238;22,72117
0,1971;23,12425;-0,03221;23,12425
0,1990;23,52710;-0,03202;23,52710
0,2009;23,92983;-0,03183;23,92983
0,2028;24,33268;-0,03162;24,33268
0,2046;24,73599;-0,03142;24,73599
0,2065;25,14000;-0,03121;25,14000
0,2084;25,54506;-0,03099;25,54506
0,2103;25,95129;-0,03077;25,95129
0,2121;26,35879;-0,03054;26,35879
0,2140;26,76792;-0,03030;26,76792
0,2159;27,17880;-0,03006;27,17880
0,2178;27,59178;-0,02981;27,59178
0,2197;28,00708;-0,02956;28,00708
0,2215;28,42471;-0,02930;28,42471
0,2234;28,84478;-0,02903;28,84478
0,2253;29,26718;-0,02875;29,26718
0,2272;29,69157;-0,02848;29,69157
0,2290;30,11793;-0,02819;30,11793
0,2309;30,54615;-0,02789;30,54615
0,2328;30,97612;-0,02760;30,97612
0,2347;31,40783;-0,02729;31,40783
0,2366;31,84094;-0,02698;31,84094
0,2384;32,27556;-0,02665;32,27556
0,2403;32,71135;-0,02633;32,71135
0,2422;33,14807;-0,02600;33,14807
0,2441;33,58561;-0,02566;33,58561
0,2459;34,02360;-0,02531;34,02360
0,2478;34,46184;-0,02497;34,46184
0,2497;34,90030;-0,02461;34,90030
0,2516;35,33830;-0,02425;35,33830
0,2534;35,77583;-0,02388;35,77583
0,2553;36,21232;-0,02350;36,21232
0,2572;36,64788;-0,02312;36,64788
0,2591;37,08203;-0,02273;37,08203
0,2610;37,51491;-0,02234;37,51491
0,2628;37,94616;-0,02193;37,94616
0,2647;38,37578;-0,02153;38,37578
0,2666;38,80365;-0,02112;38,80365
0,2685;39,22955;-0,02070;39,22955
0,2703;39,65335;-0,02028;39,65335
0,2722;40,07528;-0,01985;40,07528
0,2741;40,49501;-0,01941;40,49501
0,2760;40,91240;-0,01898;40,91240
0,2779;41,32724;-0,01853;41,32724
0,2797;41,73940;-0,01808;41,73940
0,2816;42,14865;-0,01763;42,14865
0,2835;42,55499;-0,01716;42,55499
0,2854;42,95830;-0,01670;42,95830
0,2872;43,35906;-0,01623;43,35906
0,2893;43,79682;-0,01576;43,79682
0,2914;44,23168;-0,01528;44,23168
0,2934;44,66363;-0,01430;44,66363
0,2955;45,09255;-0,01381;45,09255
0,2976;45,51867;-0,01331;45,51867
0,2996;45,94201;-0,01280;45,94201
0,3017;46,36266;-0,01230;46,36266
0,3038;46,78064;-0,01179;46,78064
0,3058;47,19594;-0,01128;47,19594
0,3079;47,60857;-0,01076;47,60857
0,3100;48,01840;-0,01023;48,01840
0,3120;48,42567;-0,00970;48,42567
0,3141;48,83061;-0,00864;48,83061
0,3162;49,23335;-0,00810;49,23335
0,3182;49,63398;-0,00757;49,63398
0,3205;50,06895;-0,00702;50,06895
0,3227;50,50195;-0,00647;50,50195
0,3250;50,93331;-0,00593;50,93331
0,3272;51,36328;-0,00482;51,36328
0,3295;51,79209;-0,00425;51,79209
0,3317;52,21984;-0,00370;52,21984
0,3340;52,64655;-0,00313;52,64655
0,3362;53,07210;-0,00256;53,07210
0,3385;53,49624;-0,00142;53,49624
0,3407;53,91900;-0,00084;53,91900
0,3430;54,34035;-0,00027;54,34035
0,3453;54,76043;0,00031;54,76043
0,3475;55,17957;0,00089;55,17957
0,3498;55,59801;0,00205;55,59801
0,3520;56,01588;0,00265;56,01588
0,3543;56,43316;0,00323;56,43316
0,3565;56,84974;0,00382;56,84974
0,3588;57,26574;0,00440;57,26574
0,3610;57,68127;0,00559;57,68127
0,3633;58,09669;0,00618;58,09669
0,3655;58,51200;0,00678;58,51200
0,3678;58,92730;0,00738;58,92730
0,3700;59,34272;0,00798;59,34272
0,3723;59,75825;0,00917;59,75825
0,3745;60,17390;0,00977;60,17390
0,3768;60,58979;0,01037;60,58979
0,3790;61,00590;0,01097;61,00590
0,3813;61,42214;0,01157;61,42214
0,3836;61,83825;0,01277;61,83825
0,3858;62,25414;0,01337;62,25414
0,3881;62,66944;0,01398;62,66944
0,3903;63,08404;0,01459;63,08404
0,3926;63,49772;0,01519;63,49772
0,3948;63,91057;0,01639;63,91057
0,3971;64,32250;0,01699;64,32250
0,3993;64,73303;0,01759;64,73303
0,4016;65,14228;0,01820;65,14228
0,4038;65,54990;0,01879;65,54990
0,4061;65,95589;0,01999;65,95589
0,4083;66,36037;0,02059;66,36037
0,4106;66,76345;0,02119;66,76345
0,4128;67,16536;0,02179;67,16536
0,4151;67,56647;0,02238;67,56647
0,4173;67,96699;0,02357;67,96699
0,4198;68,40010;0,02417;68,40010
0,4222;68,83216;0,02476;68,83216
0,4247;69,26329;0,02535;69,26329
0,4271;69,69303;0,02653;69,69303
0,4296;70,12137;0,02712;70,12137
0,4320;70,54854;0,02770;70,54854
0,4344;70,97455;0,02887;70,97455
0,4369;71,39928;0,02945;71,39928
0,4393;71,82226;0,03003;71,82226
0,4418;72,24374;0,03118;72,24374
0,4442;72,66358;0,03176;72,66358
0,4466;73,08214;0,03233;73,08214
0,4491;73,49977;0,03291;73,49977
0,4515;73,91623;0,03404;73,91623
0,4540;74,33177;0,03461;74,33177
0,4564;74,74614;0,03516;74,74614
0,4588;75,15935;0,03628;75,15935
0,4613;75,57139;0,03685;75,57139
0,4637;75,98215;0,03740;75,98215
0,4662;76,39175;0,03850;76,39175
0,4686;76,80030;0,03905;76,80030
0,4710;77,20769;0,03959;77,20769
0,4735;77,61391;0,04014;77,61391
0,4759;78,01909;0,04122;78,01909
0,4784;78,42310;0,04175;78,42310
0,4808;78,82595;0,04228;78,82595
0,4832;79,22752;0,04334;79,22752
0,4857;79,62792;0,04387;79,62792
0,4883;80,05754;0,04439;80,05754
0,4909;80,48588;0,04543;80,48588
0,4936;80,91282;0,04594;80,91282
0,4962;81,33813;0,04697;81,33813
0,4988;81,76181;0,04747;81,76181
0,5015;82,18422;0,04798;82,18422
0,5041;82,60545;0,04898;82,60545
0,5067;83,02564;0,04947;83,02564
0,5093;83,44502;0,05046;83,44502
0,5120;83,86381;0,05094;83,86381
0,5146;84,28191;0,05143;84,28191
0,5172;84,69896;0,05238;84,69896
0,5199;85,11531;0,05286;85,11531
0,5225;85,53096;0,05381;85,53096
0,5251;85,94649;0,05427;85,94649
0,5277;86,36168;0,05473;86,36168
0,5304;86,77640;0,05566;86,77640
0,5330;87,19030;0,05611;87,19030
0,5356;87,60316;0,05702;87,60316
0,5383;88,01486;0,05746;88,01486
0,5409;88,42539;0,05791;88,42539
0,5435;88,83464;0,05879;88,83464
0,5461;89,24295;0,05922;89,24295
0,5488;89,65022;0,06008;89,65022
0,5514;90,05656;0,06051;90,05656
0,5540;90,46162;0,06094;90,46162
0,5567;90,86575;0,06178;90,86575
0,5593;91,26883;0,06219;91,26883
0,5619;91,67098;0,06302;91,67098
0,5645;92,07197;0,06343;92,07197
0,5672;92,47202;0,06383;92,47202
0,5700;92,89943;0,06463;92,89943
0,5728;93,32532;0,06503;93,32532
0,5756;93,74935;0,06581;93,74935
0,5784;94,17129;0,06620;94,17129
0,5812;94,59090;0,06696;94,59090
0,5841;95,00818;0,06735;95,00818
0,5869;95,42360;0,06810;95,42360
0,5897;95,83774;0,06847;95,83774
0,5925;96,25071;0,06920;96,25071
0,5953;96,66264;0,06957;96,66264
0,5981;97,07363;0,07029;97,07363
0,6010;97,48381;0,07065;97,48381
0,6038;97,89341;0,07135;97,89341
0,6066;98,30243;0,07170;98,30243
0,6094;98,71098;0,07239;98,71098
0,6122;99,11883;0,07273;99,11883
0,6150;99,52610;0,07340;99,52610
0,6179;99,93256;0,07374;99,93256
0,6207;100,33808;0,07440;100,33808
0,6235;100,74291;0,07472;100,74291
0,6263;101,14727;0,07537;101,14727
0,6291;101,55117;0,07568;101,55117
0,6319;101,95506;0,07632;101,95506
0,6348;102,35861;0,07663;102,35861
0,6376;102,76169;0,07725;102,76169
0,6404;103,16454;0,07755;103,16454
0,6432;103,56704;0,07815;103,56704
0,6460;103,96953;0,07846;103,96953
0,6488;104,37227;0,07905;104,37227
0,6516;104,77581;0,07934;104,77581
0,6545;105,18006;0,07992;105,18006
0,6573;105,58477;0,08021;105,58477
0,6601;105,98936;0,08077;105,98936
0,6629;106,39279;0,08105;106,39279
0,6657;106,79284;0,08161;106,79284
0,6687;107,21175;0,08188;107,21175
0,6717;107,61833;0,08243;107,61833
0,6749;108,03211;0,08297;108,03211
0,6783;108,44276;0,08350;108,44276
0,6821;108,85515;0,08402;108,85515
0,6864;109,25614;0,08455;109,25614
0,6924;109,66038;0,08533;109,66038
0,7431;110,06137;0,09272;110,06137
0,7624;110,46340;0,09623;110,46340
0,7699;110,87428;0,09784;110,87428
0,7756;111,27899;0,09916;111,27899
0,7804;111,68079;0,10055;111,68079
0,7851;112,08946;0,10154;112,08946
0,7902;112,49882;0,10309;112,49882
0,7979;112,90202;0,10534;112,90202
1,2746;113,30568;0,66876;113,30568
1,2804;113,71540;0,67500;113,71540
1,2849;114,13256;0,68113;114,13256
1,2890;114,53460;0,68517;114,53460
1,2933;114,94396;0,68915;114,94396
1,2982;115,34576;0,69505;115,34576
1,3061;115,75105;0,70282;115,75105
1,4969;116,03774;1,30880;116,03774
1,5607;116,05904;1,91204;116,05904
1,6095;116,07301;2,51531;116,07301
1,6527;116,08395;3,12192;116,08395
1,6940;116,09151;3,73954;116,09151
1,7334;116,10129;4,34170;116,10129
1,7634;116,10653;4,79798;116,10653
1,7638;116,10664;4,79798;116,10664
