Part protocol
Network name;Part_OP10_MP-001_2020-08-26_15-42-54_0028_OK.csv
Protocol version;2.01.00

Index;Result information;Process values - curve related;Process values - EO related;Evaluation objects settings;Switch signal settings;Device information;Channel-X settings;Channel-Y settings;Cycle control settings;Evaluation settings;Trigger Y settings;Block settings;Measuring curve;Measuring points;Sequence;
Line;10;30;40;70;100;120;150;190;220;240;250;260;270;280;600;



Result information
Date;2020/08/26
Time;15:42:54
Cycle number;28
Total result;OK
Triggered switch signals
Part serial number;0028
Measuring program name;D57-Left
Measuring program number;1
Zero X offset;0,00;mm
Tara Y offset;0,0;kN









Process values - curve related
Block X;126,35;mm;XMIN-X;-0,16;mm
Block Y;7,5;kN;XMIN-Y;0,0;kN
Ref X;-;mm;XMAX-X;126,35;mm
Peak-peak X;126,51;mm;XMAX-Y;7,5;kN
Peak-peak Y;7,5;kN;YMIN-X;0,25;mm
;;;YMIN-Y;0,0;kN
;;;YMAX-X;126,35;mm
;;;YMAX-Y;7,5;kN

Process values - EO related;Result;Entry;Exit;XMIN-X;XMIN-Y;XMAX-X;XMAX-Y;YMIN-Y;YMIN-X;YMAX-Y;YMAX-X
;;;;mm;kN;mm;kN;kN;mm;kN;mm
EO-01;OK;0,7;0,8;;;;;0,7;124,50;0,8;125,56;;;;;;
EO-02;OK;126,30;126,32;126,30;4,5;126,31;5,0;;;;;;;;;;
EO-03;None;
EO-04;None;
























Evaluation objects settings;Reaction;X reference;Y-Reference;XMin;XMax;YMin;YMax;Entry;Exit;Curve part;Catch zone X;Catch zone Y
EO-01;UNI-BOX;ABSOLUTE;-;124,50;125,70;0,5;3,0;LEFT;RIGHT;ANY;+50%;+50%
EO-02;UNI-BOX;ABSOLUTE;-;125,80;127,20;4,5;5,5;BELOW;ABOVE;ANY;+50%;+50%
EO-03;OFF
EO-04;OFF

























Switch signal settings;Channel;Threshold at;;Trigger from;Reference;Latch until
Type S1;OFF
Type S2;OFF

















Device information
Device type;maXYmos BL
Device type number;5867B1011
Device serial number;5182443
Firmware version;2.3.2 (r22473-BL_v2.3.x)
-
-
-
-
-
IP Address;10.0.0.18
Network name;OP10
Profibus address;10
-
-
-
Station name;OP10
Company name;
Comment;











Channel-X settings
Use the settings from global setup;True
Sensor-X type;Â±10V
Unit;mm
Used range from;0,00;mm
Used range to;200,00;mm
Decimal places;XXXX.XX
Scaling by;Teach-In
Point 1;0,00;mm;-0,350;%
Point 2;200,00;mm;10,000;%
Invert signal;FALSE
Filter;20 Hz
Test point;0,00;mm
Tolerance;2,00;mm
Enable sensor test by dig-input;FALSE
Zoom from;110,00;mm
Zoom to;133,11;mm























Channel-Y settings
Use the settings from global setup;True
Sensor-Y type;Strain Gage
Unit;kN
Used range from;0,0;kN
Used range to;20,0;kN
Decimal places;XXXXX.X
Scaling by;Teach-In
Point 1;0,0;kN;-0,01562;%
Point 2;20,0;kN;2,00000;%
Invert signal;FALSE
Filter;1 Hz
Piezo reset;-
Test point;0,0;kN
Tolerance;0,1;kN
Enable sensor test by dig-input;FALSE
Zoom from;0,0;kN
Zoom to;6,0;kN












Cycle control settings
Use the settings from global setup;True
Measuring function;Y (X)
Delta-X;Automatic
START condition;Dig-Input
STOP condition;Dig-Input
Cycle time out;20,00;s
Turning point RIGHT;YMAX
Turning point LEFT;NONE
Cut curve at;NONE










Evaluation settings
Capture only first NOK-EO for statistics;False
Hysteresis-X;0,0;%
Hysteresis-Y;100,0;%






Trigger Y settings
Threshold;1,9;kN
Value X at TRIGGER Y;0,00;mm
Approach from;BELOW






Block settings
Value X at block;XMAX
Block at;0,00;mm







Measuring curve
Number of measuring points;316
Ref. Graph on;ABSOLUTE
Curve segments;0;315;314;316;


Time;X(ABSOLUTE);Y;X (ABSOLUTE)


s;mm;kN;mm
0,0000;-0,15513;-0,03431;-0,15513
0,0966;0,24597;-0,03435;0,24597
0,1006;0,65278;-0,03435;0,65278
0,1034;1,05982;-0,03435;1,05982
0,1058;1,49409;-0,03435;1,49409
0,1079;1,92115;-0,03435;1,92115
0,1098;2,35694;-0,03435;2,35694
0,1115;2,78760;-0,03435;2,78760
0,1130;3,20093;-0,03435;3,20093
0,1145;3,64265;-0,03435;3,64265
0,1158;4,05225;-0,03435;4,05225
0,1171;4,48326;-0,03434;4,48326
0,1184;4,93500;-0,03434;4,93500
0,1195;5,33691;-0,03434;5,33691
0,1207;5,74931;-0,03434;5,74931
0,1218;6,16810;-0,03433;6,16810
0,1229;6,58841;-0,03433;6,58841
0,1240;7,00557;-0,03432;7,00557
0,1252;7,41540;-0,03432;7,41540
0,1263;7,81546;-0,03432;7,81546
0,1276;8,26754;-0,03431;8,26754
0,1289;8,70240;-0,03431;8,70240
0,1302;9,11921;-0,03430;9,11921
0,1317;9,57281;-0,03429;9,57281
0,1332;10,00243;-0,03428;10,00243
0,1348;10,41017;-0,03428;10,41017
0,1364;10,84723;-0,03426;10,84723
0,1381;11,26812;-0,03425;11,26812
0,1398;11,67888;-0,03423;11,67888
0,1415;12,08360;-0,03423;12,08360
0,1432;12,48528;-0,03421;12,48528
0,1449;12,88638;-0,03418;12,88638
0,1466;13,28946;-0,03416;13,28946
0,1483;13,69662;-0,03413;13,69662
0,1500;14,10889;-0,03411;14,10889
0,1516;14,52594;-0,03411;14,52594
0,1533;14,94706;-0,03409;14,94706
0,1550;15,37226;-0,03406;15,37226
0,1567;15,80141;-0,03402;15,80141
0,1584;16,23452;-0,03398;16,23452
0,1601;16,67077;-0,03396;16,67077
0,1618;17,10936;-0,03392;17,10936
0,1635;17,54945;-0,03387;17,54945
0,1652;17,99117;-0,03384;17,99117
0,1669;18,43499;-0,03379;18,43499
0,1685;18,88091;-0,03379;18,88091
0,1702;19,32845;-0,03374;19,32845
0,1719;19,77693;-0,03369;19,77693
0,1736;20,22622;-0,03364;20,22622
0,1751;20,62639;-0,03359;20,62639
0,1766;21,02807;-0,03353;21,02807
0,1781;21,43127;-0,03348;21,43127
0,1796;21,83563;-0,03348;21,83563
0,1811;22,24046;-0,03341;22,24046
0,1826;22,64517;-0,03335;22,64517
0,1841;23,04988;-0,03328;23,04988
0,1856;23,45482;-0,03322;23,45482
0,1871;23,86023;-0,03322;23,86023
0,1886;24,26598;-0,03314;24,26598
0,1901;24,67186;-0,03307;24,67186
0,1916;25,07727;-0,03299;25,07727
0,1931;25,48198;-0,03291;25,48198
0,1946;25,88610;-0,03291;25,88610
0,1961;26,29000;-0,03284;26,29000
0,1976;26,69366;-0,03275;26,69366
0,1991;27,09732;-0,03266;27,09732
0,2006;27,50017;-0,03258;27,50017
0,2021;27,90197;-0,03258;27,90197
0,2037;28,30238;-0,03248;28,30238
0,2053;28,75120;-0,03239;28,75120
0,2070;29,19839;-0,03230;29,19839
0,2087;29,64396;-0,03220;29,64396
0,2104;30,08743;-0,03210;30,08743
0,2121;30,52846;-0,03199;30,52846
0,2138;30,96680;-0,03189;30,96680
0,2155;31,40248;-0,03189;31,40248
0,2172;31,83582;-0,03178;31,83582
0,2189;32,26683;-0,03168;32,26683
0,2205;32,69552;-0,03157;32,69552
0,2222;33,12200;-0,03145;33,12200
0,2239;33,54615;-0,03134;33,54615
0,2256;33,96808;-0,03122;33,96808
0,2273;34,38816;-0,03110;34,38816
0,2290;34,80602;-0,03098;34,80602
0,2307;35,22156;-0,03086;35,22156
0,2324;35,63476;-0,03086;35,63476
0,2341;36,04564;-0,03074;36,04564
0,2358;36,45408;-0,03061;36,45408
0,2374;36,86042;-0,03048;36,86042
0,2391;37,26454;-0,03035;37,26454
0,2408;37,66646;-0,03022;37,66646
0,2427;38,11075;-0,03009;38,11075
0,2446;38,55259;-0,02995;38,55259
0,2465;38,99221;-0,02981;38,99221
0,2483;39,42986;-0,02967;39,42986
0,2502;39,86565;-0,02953;39,86565
0,2521;40,29993;-0,02939;40,29993
0,2540;40,73269;-0,02925;40,73269
0,2558;41,16382;-0,02911;41,16382
0,2577;41,59344;-0,02897;41,59344
0,2596;42,02108;-0,02882;42,02108
0,2615;42,44697;-0,02867;42,44697
0,2634;42,87101;-0,02852;42,87101
0,2652;43,29352;-0,02837;43,29352
0,2671;43,71430;-0,02823;43,71430
0,2690;44,13344;-0,02807;44,13344
0,2709;44,55119;-0,02792;44,55119
0,2727;44,96719;-0,02776;44,96719
0,2746;45,38191;-0,02762;45,38191
0,2765;45,79511;-0,02746;45,79511
0,2784;46,20704;-0,02730;46,20704
0,2802;46,61780;-0,02714;46,61780
0,2821;47,02717;-0,02699;47,02717
0,2840;47,43514;-0,02683;47,43514
0,2859;47,84183;-0,02667;47,84183
0,2878;48,24712;-0,02650;48,24712
0,2896;48,65101;-0,02635;48,65101
0,2915;49,05375;-0,02618;49,05375
0,2934;49,45520;-0,02602;49,45520
0,2953;49,85572;-0,02586;49,85572
0,2973;50,29511;-0,02570;50,29511
0,2994;50,73335;-0,02553;50,73335
0,3015;51,17053;-0,02537;51,17053
0,3035;51,60678;-0,02521;51,60678
0,3056;52,04211;-0,02504;52,04211
0,3077;52,47638;-0,02471;52,47638
0,3097;52,90937;-0,02454;52,90937
0,3118;53,34097;-0,02438;53,34097
0,3139;53,77117;-0,02421;53,77117
0,3159;54,19998;-0,02404;54,19998
0,3180;54,62762;-0,02388;54,62762
0,3201;55,05409;-0,02371;55,05409
0,3221;55,47964;-0,02354;55,47964
0,3242;55,90414;-0,02337;55,90414
0,3262;56,32747;-0,02320;56,32747
0,3283;56,74941;-0,02287;56,74941
0,3304;57,16983;-0,02269;57,16983
0,3324;57,58886;-0,02252;57,58886
0,3345;58,00660;-0,02236;58,00660
0,3366;58,42318;-0,02219;58,42318
0,3386;58,83860;-0,02202;58,83860
0,3407;59,25309;-0,02185;59,25309
0,3428;59,66653;-0,02168;59,66653
0,3448;60,07881;-0,02152;60,07881
0,3469;60,48980;-0,02134;60,48980
0,3490;60,89940;-0,02101;60,89940
0,3510;61,30725;-0,02083;61,30725
0,3531;61,71359;-0,02066;61,71359
0,3552;62,11830;-0,02050;62,11830
0,3572;62,52185;-0,02032;62,52185
0,3593;62,92411;-0,02015;62,92411
0,3614;63,32533;-0,01999;63,32533
0,3634;63,72562;-0,01982;63,72562
0,3657;64,16094;-0,01965;64,16094
0,3679;64,59487;-0,01931;64,59487
0,3702;65,02705;-0,01915;65,02705
0,3724;65,45736;-0,01898;65,45736
0,3747;65,88594;-0,01880;65,88594
0,3769;66,31311;-0,01864;66,31311
0,3792;66,73900;-0,01830;66,73900
0,3814;67,16420;-0,01814;67,16420
0,3837;67,58846;-0,01797;67,58846
0,3859;68,01215;-0,01780;68,01215
0,3882;68,43490;-0,01764;68,43490
0,3905;68,85684;-0,01730;68,85684
0,3927;69,27761;-0,01714;69,27761
0,3950;69,69757;-0,01697;69,69757
0,3972;70,11648;-0,01680;70,11648
0,3995;70,53480;-0,01664;70,53480
0,4017;70,95232;-0,01631;70,95232
0,4040;71,36937;-0,01615;71,36937
0,4062;71,78572;-0,01598;71,78572
0,4085;72,20113;-0,01582;72,20113
0,4107;72,61551;-0,01566;72,61551
0,4130;73,02883;-0,01533;73,02883
0,4152;73,44110;-0,01517;73,44110
0,4175;73,85257;-0,01500;73,85257
0,4197;74,26333;-0,01484;74,26333
0,4220;74,67339;-0,01467;74,67339
0,4242;75,08288;-0,01435;75,08288
0,4265;75,49154;-0,01419;75,49154
0,4288;75,89940;-0,01403;75,89940
0,4310;76,30597;-0,01387;76,30597
0,4333;76,71138;-0,01370;76,71138
0,4355;77,11527;-0,01339;77,11527
0,4378;77,51800;-0,01322;77,51800
0,4400;77,91957;-0,01306;77,91957
0,4423;78,32032;-0,01291;78,32032
0,4447;78,75355;-0,01258;78,75355
0,4472;79,18596;-0,01243;79,18596
0,4496;79,61768;-0,01227;79,61768
0,4520;80,04892;-0,01211;80,04892
0,4545;80,47913;-0,01179;80,47913
0,4569;80,90781;-0,01163;80,90781
0,4594;81,33429;-0,01147;81,33429
0,4618;81,75832;-0,01116;81,75832
0,4642;82,18014;-0,01100;82,18014
0,4667;82,60010;-0,01084;82,60010
0,4691;83,01866;-0,01053;83,01866
0,4716;83,43582;-0,01037;83,43582
0,4740;83,85136;-0,01021;83,85136
0,4764;84,26515;-0,01006;84,26515
0,4789;84,67684;-0,00974;84,67684
0,4813;85,08656;-0,00959;85,08656
0,4838;85,49476;-0,00944;85,49476
0,4862;85,90191;-0,00912;85,90191
0,4886;86,30837;-0,00896;86,30837
0,4911;86,71389;-0,00882;86,71389
0,4935;87,11826;-0,00850;87,11826
0,4960;87,52134;-0,00835;87,52134
0,4984;87,92302;-0,00819;87,92302
0,5010;88,35345;-0,00789;88,35345
0,5037;88,78179;-0,00773;88,78179
0,5063;89,20815;-0,00757;89,20815
0,5089;89,63265;-0,00727;89,63265
0,5115;90,05575;-0,00712;90,05575
0,5142;90,47769;-0,00681;90,47769
0,5168;90,89846;-0,00666;90,89846
0,5194;91,31807;-0,00650;91,31807
0,5221;91,73663;-0,00620;91,73663
0,5247;92,15414;-0,00605;92,15414
0,5273;92,57073;-0,00574;92,57073
0,5299;92,98649;-0,00559;92,98649
0,5326;93,40168;-0,00544;93,40168
0,5352;93,81628;-0,00513;93,81628
0,5378;94,23054;-0,00498;94,23054
0,5405;94,64398;-0,00468;94,64398
0,5431;95,05648;-0,00453;95,05648
0,5457;95,46806;-0,00438;95,46806
0,5483;95,87883;-0,00408;95,87883
0,5510;96,28819;-0,00393;96,28819
0,5536;96,69628;-0,00362;96,69628
0,5562;97,10297;-0,00347;97,10297
0,5589;97,50849;-0,00333;97,50849
0,5615;97,91355;-0,00302;97,91355
0,5641;98,31861;-0,00287;98,31861
0,5667;98,72367;-0,00258;98,72367
0,5694;99,12814;-0,00242;99,12814
0,5720;99,53157;-0,00227;99,53157
0,5746;99,93361;-0,00197;99,93361
0,5773;100,33424;-0,00183;100,33424
0,5801;100,76223;-0,00152;100,76223
0,5829;101,18894;-0,00137;101,18894
0,5857;101,61449;-0,00108;101,61449
0,5885;102,03887;-0,00093;102,03887
0,5913;102,46232;-0,00063;102,46232
0,5942;102,88519;-0,00048;102,88519
0,5970;103,30712;-0,00018;103,30712
0,5998;103,72580;-0,00003;103,72580
0,6026;104,13889;0,00027;104,13889
0,6054;104,54476;0,00041;104,54476
0,6084;104,96915;0,00071;104,96915
0,6114;105,38550;0,00086;105,38550
0,6144;105,79346;0,00115;105,79346
0,6176;106,21622;0,00146;106,21622
0,6208;106,62733;0,00161;106,62733
0,6240;107,02785;0,00190;107,02785
0,6274;107,44327;0,00220;107,44327
0,6308;107,85263;0,00251;107,85263
0,6341;108,25816;0,00265;108,25816
0,6375;108,66217;0,00296;108,66217
0,6409;109,06641;0,00327;109,06641
0,6443;109,47299;0,00357;109,47299
0,6477;109,88270;0,00389;109,88270
0,6510;110,29556;0,00404;110,29556
0,6544;110,71063;0,00436;110,71063
0,6578;111,12663;0,00468;111,12663
0,6612;111,54146;0,00500;111,54146
0,6646;111,95258;0,00533;111,95258
0,6679;112,35787;0,00550;112,35787
0,6715;112,77759;0,00583;112,77759
0,6751;113,18999;0,00617;113,18999
0,6786;113,59830;0,00651;113,59830
0,6822;114,00604;0,00688;114,00604
0,6858;114,41576;0,00724;114,41576
0,6893;114,82954;0,00760;114,82954
0,6929;115,24741;0,00798;115,24741
0,6965;115,66748;0,00837;115,66748
0,7000;116,08884;0,00875;116,08884
0,7034;116,49075;0,00896;116,49075
0,7068;116,89907;0,00937;116,89907
0,7102;117,31868;0,00978;117,31868
0,7134;117,72199;0,01021;117,72199
0,7169;118,14032;0,01064;118,14032
0,7214;118,54259;0,01110;118,54259
0,7348;118,94264;0,01282;118,94264
1,2557;119,07219;0,61342;119,07219
1,2837;119,47469;0,64632;119,47469
1,2888;119,88336;0,65307;119,88336
1,2933;120,28492;0,65974;120,28492
1,2980;120,69848;0,66412;120,69848
1,3034;121,10098;0,67066;121,10098
1,3124;121,50604;0,68143;121,50604
1,3239;121,91296;0,69433;121,91296
1,3310;122,32186;0,70300;122,32186
1,3365;122,72843;0,70959;122,72843
1,3419;123,14210;0,71405;123,14210
1,3474;123,54344;0,72082;123,54344
1,3534;123,94710;0,73009;123,94710
1,3603;124,35216;0,73724;124,35216
1,3671;124,75640;0,74706;124,75640
1,3735;125,16135;0,75465;125,16135
1,3795;125,56280;0,76246;125,56280
1,3875;125,96460;0,77597;125,96460
1,5824;126,19867;1,37698;126,19867
1,6725;126,23604;1,98919;126,23604
1,7401;126,25850;2,59745;126,25850
1,7983;126,27503;3,20410;126,27503
1,8528;126,28993;3,81664;126,28993
1,9053;126,30192;4,42659;126,30192
1,9579;126,31088;5,03526;126,31088
2,0123;126,32333;5,64818;126,32333
2,0687;126,33195;6,25149;126,33195
2,1287;126,33905;6,85319;126,33905
2,1945;126,35045;7,45864;126,35045
2,1948;126,35057;7,45864;126,35057
