Part protocol
Network name;Part_OP10_MP-002_2020-08-26_10-23-32_0013_OK.csv
Protocol version;2.01.00

Index;Result information;Process values - curve related;Process values - EO related;Evaluation objects settings;Switch signal settings;Device information;Channel-X settings;Channel-Y settings;Cycle control settings;Evaluation settings;Trigger Y settings;Block settings;Measuring curve;Measuring points;Sequence;
Line;10;30;40;70;100;120;150;190;220;240;250;260;270;280;570;



Result information
Date;2020/08/26
Time;10:23:32
Cycle number;13
Total result;OK
Triggered switch signals
Part serial number;0013
Measuring program name;D57-Right
Measuring program number;2
Zero X offset;0,00;mm
Tara Y offset;0,0;kN









Process values - curve related
Block X;116,12;mm;XMIN-X;-0,06;mm
Block Y;4,8;kN;XMIN-Y;0,0;kN
Ref X;-;mm;XMAX-X;116,12;mm
Peak-peak X;116,19;mm;XMAX-Y;4,8;kN
Peak-peak Y;4,8;kN;YMIN-X;-0,06;mm
;;;YMIN-Y;0,0;kN
;;;YMAX-X;116,12;mm
;;;YMAX-Y;4,8;kN

Process values - EO related;Result;Entry;Exit;XMIN-X;XMIN-Y;XMAX-X;XMAX-Y;YMIN-Y;YMIN-X;YMAX-Y;YMAX-X
;;;;mm;kN;mm;kN;kN;mm;kN;mm
EO-01;OK;0,7;0,7;;;;;0,7;115,00;0,7;115,45;;;;;;
EO-02;OK;;116,10;116,09;2,3;116,10;3,2;2,3;116,09;;;;;;;;
EO-03;None;
EO-04;None;
























Evaluation objects settings;Reaction;X reference;Y-Reference;XMin;XMax;YMin;YMax;Entry;Exit;Curve part;Catch zone X;Catch zone Y
EO-01;UNI-BOX;ABSOLUTE;-;115,00;115,50;0,4;2,0;LEFT;RIGHT;ANY;+50%;+50%
EO-02;UNI-BOX;ABSOLUTE;-;115,40;117,10;2,3;3,3;ANY;ABOVE;ANY;+50%;+50%
EO-03;OFF
EO-04;OFF

























Switch signal settings;Channel;Threshold at;;Trigger from;Reference;Latch until
Type S1;OFF
Type S2;OFF

















Device information
Device type;maXYmos BL
Device type number;5867B1011
Device serial number;5182443
Firmware version;2.3.2 (r22473-BL_v2.3.x)
-
-
-
-
-
IP Address;10.0.0.18
Network name;OP10
Profibus address;10
-
-
-
Station name;OP10
Company name;
Comment;











Channel-X settings
Use the settings from global setup;True
Sensor-X type;Â±10V
Unit;mm
Used range from;0,00;mm
Used range to;200,00;mm
Decimal places;XXXX.XX
Scaling by;Teach-In
Point 1;0,00;mm;-0,350;%
Point 2;200,00;mm;10,000;%
Invert signal;FALSE
Filter;20 Hz
Test point;0,00;mm
Tolerance;2,00;mm
Enable sensor test by dig-input;FALSE
Zoom from;100,00;mm
Zoom to;120,00;mm























Channel-Y settings
Use the settings from global setup;True
Sensor-Y type;Strain Gage
Unit;kN
Used range from;0,0;kN
Used range to;20,0;kN
Decimal places;XXXXX.X
Scaling by;Teach-In
Point 1;0,0;kN;-0,01562;%
Point 2;20,0;kN;2,00000;%
Invert signal;FALSE
Filter;1 Hz
Piezo reset;-
Test point;0,0;kN
Tolerance;0,1;kN
Enable sensor test by dig-input;FALSE
Zoom from;0,0;kN
Zoom to;5,0;kN












Cycle control settings
Use the settings from global setup;True
Measuring function;Y (X)
Delta-X;Automatic
START condition;Dig-Input
STOP condition;Dig-Input
Cycle time out;20,00;s
Turning point RIGHT;YMAX
Turning point LEFT;NONE
Cut curve at;NONE










Evaluation settings
Capture only first NOK-EO for statistics;False
Hysteresis-X;0,0;%
Hysteresis-Y;100,0;%






Trigger Y settings
Threshold;1,8;kN
Value X at TRIGGER Y;0,00;mm
Approach from;BELOW






Block settings
Value X at block;XMAX
Block at;0,00;mm







Measuring curve
Number of measuring points;287
Ref. Graph on;ABSOLUTE
Curve segments;0;287;286;287;


Time;X(ABSOLUTE);Y;X (ABSOLUTE)


s;mm;kN;mm
0,0000;-0,06120;-0,03636;-0,06120
0,1077;0,35387;-0,03636;0,35387
0,1111;0,76359;-0,03636;0,76359
0,1135;1,18285;-0,03636;1,18285
0,1156;1,62294;-0,03635;1,62294
0,1173;2,04162;-0,03635;2,04162
0,1188;2,45599;-0,03635;2,45599
0,1203;2,90411;-0,03634;2,90411
0,1216;3,31627;-0,03634;3,31627
0,1229;3,73949;-0,03633;3,73949
0,1242;4,16690;-0,03632;4,16690
0,1256;4,59361;-0,03632;4,59361
0,1269;5,01589;-0,03631;5,01589
0,1282;5,43108;-0,03629;5,43108
0,1295;5,83742;-0,03628;5,83742
0,1310;6,28915;-0,03628;6,28915
0,1325;6,72727;-0,03626;6,72727
0,1340;7,15270;-0,03623;7,15270
0,1355;7,56765;-0,03622;7,56765
0,1370;7,97446;-0,03619;7,97446
0,1385;8,37498;-0,03619;8,37498
0,1402;8,82077;-0,03616;8,82077
0,1419;9,26424;-0,03612;9,26424
0,1436;9,70806;-0,03610;9,70806
0,1453;10,15409;-0,03605;10,15409
0,1470;10,60385;-0,03601;10,60385
0,1485;11,00728;-0,03597;11,00728
0,1500;11,41420;-0,03597;11,41420
0,1515;11,82426;-0,03591;11,82426
0,1530;12,23701;-0,03586;12,23701
0,1545;12,65184;-0,03580;12,65184
0,1560;13,06796;-0,03573;13,06796
0,1575;13,48454;-0,03573;13,48454
0,1590;13,90066;-0,03567;13,90066
0,1605;14,31549;-0,03560;14,31549
0,1620;14,72847;-0,03552;14,72847
0,1635;15,13888;-0,03544;15,13888
0,1650;15,54639;-0,03544;15,54639
0,1665;15,95051;-0,03535;15,95051
0,1680;16,35092;-0,03526;16,35092
0,1697;16,79695;-0,03517;16,79695
0,1714;17,23809;-0,03507;17,23809
0,1730;17,67423;-0,03496;17,67423
0,1747;18,10524;-0,03485;18,10524
0,1764;18,53137;-0,03473;18,53137
0,1781;18,95307;-0,03473;18,95307
0,1798;19,37059;-0,03460;19,37059
0,1815;19,78438;-0,03448;19,78438
0,1832;20,19467;-0,03435;20,19467
0,1849;20,60183;-0,03421;20,60183
0,1866;21,00607;-0,03406;21,00607
0,1883;21,40741;-0,03391;21,40741
0,1901;21,85041;-0,03375;21,85041
0,1920;22,29051;-0,03359;22,29051
0,1939;22,72792;-0,03342;22,72792
0,1958;23,16266;-0,03324;23,16266
0,1976;23,59508;-0,03306;23,59508
0,1995;24,02504;-0,03287;24,02504
0,2014;24,45280;-0,03268;24,45280
0,2033;24,87823;-0,03248;24,87823
0,2052;25,30168;-0,03228;25,30168
0,2070;25,72327;-0,03207;25,72327
0,2089;26,14311;-0,03185;26,14311
0,2108;26,56144;-0,03162;26,56144
0,2127;26,97837;-0,03139;26,97837
0,2145;27,39390;-0,03115;27,39390
0,2164;27,80839;-0,03091;27,80839
0,2183;28,22160;-0,03066;28,22160
0,2202;28,63387;-0,03040;28,63387
0,2221;29,04487;-0,03014;29,04487
0,2239;29,45493;-0,02987;29,45493
0,2258;29,86395;-0,02960;29,86395
0,2277;30,27203;-0,02932;30,27203
0,2296;30,67931;-0,02903;30,67931
0,2314;31,08599;-0,02874;31,08599
0,2333;31,49233;-0,02844;31,49233
0,2352;31,89809;-0,02813;31,89809
0,2371;32,30362;-0,02782;32,30362
0,2389;32,70891;-0,02750;32,70891
0,2408;33,11420;-0,02717;33,11420
0,2427;33,51949;-0,02685;33,51949
0,2446;33,92502;-0,02650;33,92502
0,2465;34,33066;-0,02616;34,33066
0,2483;34,73642;-0,02581;34,73642
0,2502;35,14229;-0,02546;35,14229
0,2521;35,54816;-0,02510;35,54816
0,2540;35,95404;-0,02473;35,95404
0,2558;36,35991;-0,02436;36,35991
0,2577;36,76579;-0,02398;36,76579
0,2596;37,17166;-0,02359;37,17166
0,2615;37,57742;-0,02320;37,57742
0,2634;37,98306;-0,02280;37,98306
0,2652;38,38823;-0,02240;38,38823
0,2671;38,79306;-0,02199;38,79306
0,2690;39,19742;-0,02158;39,19742
0,2709;39,60132;-0,02115;39,60132
0,2727;40,00486;-0,02074;40,00486
0,2746;40,40806;-0,02030;40,40806
0,2765;40,81091;-0,01987;40,81091
0,2784;41,21341;-0,01942;41,21341
0,2802;41,61521;-0,01898;41,61521
0,2821;42,01607;-0,01853;42,01607
0,2842;42,45594;-0,01807;42,45594
0,2863;42,89440;-0,01761;42,89440
0,2883;43,33147;-0,01715;43,33147
0,2904;43,76691;-0,01667;43,76691
0,2925;44,20072;-0,01619;44,20072
0,2945;44,63255;-0,01571;44,63255
0,2966;45,06252;-0,01474;45,06252
0,2986;45,49062;-0,01424;45,49062
0,3007;45,91663;-0,01374;45,91663
0,3028;46,34066;-0,01324;46,34066
0,3048;46,76260;-0,01273;46,76260
0,3069;47,18221;-0,01222;47,18221
0,3090;47,59961;-0,01170;47,59961
0,3110;48,01479;-0,01118;48,01479
0,3131;48,42800;-0,01066;48,42800
0,3152;48,83946;-0,01013;48,83946
0,3172;49,24918;-0,00906;49,24918
0,3193;49,65714;-0,00853;49,65714
0,3214;50,06337;-0,00799;50,06337
0,3234;50,46773;-0,00745;50,46773
0,3255;50,86999;-0,00689;50,86999
0,3276;51,27051;-0,00634;51,27051
0,3298;51,70525;-0,00579;51,70525
0,3321;52,13802;-0,00523;52,13802
0,3343;52,56880;-0,00410;52,56880
0,3366;52,99784;-0,00354;52,99784
0,3388;53,42524;-0,00297;53,42524
0,3411;53,85137;-0,00240;53,85137
0,3433;54,27633;-0,00183;54,27633
0,3456;54,70036;-0,00068;54,70036
0,3478;55,12381;-0,00010;55,12381
0,3501;55,54657;0,00049;55,54657
0,3523;55,96874;0,00107;55,96874
0,3546;56,39032;0,00165;56,39032
0,3568;56,81110;0,00283;56,81110
0,3591;57,23140;0,00342;57,23140
0,3614;57,65136;0,00402;57,65136
0,3636;58,07120;0,00461;58,07120
0,3659;58,49116;0,00520;58,49116
0,3681;58,91112;0,00639;58,91112
0,3704;59,33096;0,00700;59,33096
0,3726;59,75057;0,00760;59,75057
0,3749;60,17006;0,00819;60,17006
0,3771;60,58920;0,00879;60,58920
0,3794;61,00823;0,00999;61,00823
0,3816;61,42702;0,01061;61,42702
0,3839;61,84535;0,01121;61,84535
0,3861;62,26298;0,01181;62,26298
0,3884;62,67968;0,01241;62,67968
0,3906;63,09545;0,01362;63,09545
0,3929;63,51029;0,01423;63,51029
0,3951;63,92454;0,01484;63,92454
0,3974;64,33810;0,01544;64,33810
0,3997;64,75107;0,01605;64,75107
0,4019;65,16335;0,01725;65,16335
0,4042;65,57458;0,01785;65,57458
0,4064;65,98452;0,01847;65,98452
0,4087;66,39319;0,01907;66,39319
0,4109;66,80046;0,01967;66,80046
0,4132;67,20645;0,02087;67,20645
0,4154;67,61139;0,02147;67,61139
0,4177;68,01541;0,02208;68,01541
0,4199;68,41849;0,02268;68,41849
0,4222;68,82052;0,02327;68,82052
0,4244;69,22139;0,02446;69,22139
0,4269;69,65438;0,02506;69,65438
0,4293;70,08598;0,02565;70,08598
0,4318;70,51595;0,02683;70,51595
0,4342;70,94405;0,02743;70,94405
0,4366;71,37006;0,02802;71,37006
0,4391;71,79398;0,02860;71,79398
0,4415;72,21638;0,02977;72,21638
0,4440;72,63739;0,03035;72,63739
0,4464;73,05746;0,03093;73,05746
0,4488;73,47649;0,03209;73,47649
0,4513;73,89447;0,03267;73,89447
0,4537;74,31105;0,03324;74,31105
0,4562;74,72600;0,03438;74,72600
0,4586;75,13921;0,03494;75,13921
0,4610;75,55067;0,03551;75,55067
0,4635;75,96050;0,03607;75,96050
0,4659;76,36905;0,03719;76,36905
0,4684;76,77656;0,03775;76,77656
0,4708;77,18325;0,03830;77,18325
0,4732;77,58889;0,03940;77,58889
0,4757;77,99360;0,03995;77,99360
0,4781;78,39691;0,04050;78,39691
0,4806;78,79894;0,04158;78,79894
0,4830;79,19981;0,04212;79,19981
0,4856;79,63025;0,04265;79,63025
0,4883;80,05940;0,04371;80,05940
0,4909;80,48692;0,04424;80,48692
0,4935;80,91305;0,04476;80,91305
0,4962;81,33755;0,04580;81,33755
0,4988;81,76077;0,04632;81,76077
0,5014;82,18305;0,04735;82,18305
0,5040;82,60464;0,04786;82,60464
0,5067;83,02553;0,04836;83,02553
0,5093;83,44572;0,04936;83,44572
0,5119;83,86533;0,04986;83,86533
0,5145;84,28424;0,05085;84,28424
0,5172;84,70245;0,05134;84,70245
0,5198;85,12020;0,05182;85,12020
0,5224;85,53748;0,05278;85,53748
0,5251;85,95429;0,05326;85,95429
0,5277;86,37087;0,05421;86,37087
0,5303;86,78676;0,05468;86,78676
0,5329;87,20171;0,05514;87,20171
0,5356;87,61550;0,05607;87,61550
0,5382;88,02836;0,05652;88,02836
0,5408;88,44028;0,05743;88,44028
0,5435;88,85163;0,05788;88,85163
0,5461;89,26262;0,05833;89,26262
0,5487;89,67304;0,05920;89,67304
0,5513;90,08252;0,05965;90,08252
0,5540;90,49096;0,06051;90,49096
0,5566;90,89834;0,06094;90,89834
0,5592;91,30468;0,06137;91,30468
0,5619;91,71009;0,06221;91,71009
0,5645;92,11410;0,06263;92,11410
0,5671;92,51683;0,06345;92,51683
0,5697;92,91817;0,06386;92,91817
0,5726;93,34639;0,06468;93,34639
0,5754;93,77263;0,06507;93,77263
0,5782;94,19690;0,06587;94,19690
0,5810;94,61930;0,06626;94,61930
0,5838;95,03984;0,06704;95,03984
0,5866;95,45840;0,06742;95,45840
0,5895;95,87498;0,06818;95,87498
0,5923;96,28970;0,06855;96,28970
0,5951;96,70303;0,06930;96,70303
0,5979;97,11542;0,06966;97,11542
0,6007;97,52711;0,07040;97,52711
0,6035;97,93834;0,07076;97,93834
0,6064;98,34899;0,07147;98,34899
0,6092;98,75894;0,07182;98,75894
0,6120;99,16784;0,07252;99,16784
0,6148;99,57546;0,07287;99,57546
0,6176;99,98203;0,07354;99,98203
0,6204;100,38790;0,07389;100,38790
0,6233;100,79308;0,07455;100,79308
0,6261;101,19779;0,07488;101,19779
0,6289;101,60261;0,07553;101,60261
0,6317;102,00791;0,07586;102,00791
0,6345;102,41355;0,07650;102,41355
0,6373;102,81942;0,07681;102,81942
0,6401;103,22506;0,07743;103,22506
0,6430;103,63047;0,07775;103,63047
0,6458;104,03565;0,07836;104,03565
0,6486;104,44094;0,07866;104,44094
0,6514;104,84705;0,07926;104,84705
0,6542;105,25362;0,07955;105,25362
0,6570;105,66007;0,08013;105,66007
0,6599;106,06572;0,08043;106,06572
0,6627;106,47008;0,08100;106,47008
0,6655;106,87199;0,08128;106,87199
0,6685;107,29428;0,08185;107,29428
0,6715;107,70632;0,08212;107,70632
0,6747;108,12803;0,08268;108,12803
0,6781;108,54961;0,08323;108,54961
0,6816;108,95560;0,08376;108,95560
0,6858;109,35868;0,08429;109,35868
0,6914;109,76561;0,08509;109,76561
0,7368;110,16578;0,09164;110,16578
0,7646;110,56758;0,09688;110,56758
0,7727;110,97880;0,09856;110,97880
0,7787;111,38317;0,09993;111,38317
0,7840;111,78729;0,10139;111,78729
0,7890;112,19934;0,10294;112,19934
0,7943;112,60102;0,10460;112,60102
0,8024;113,00422;0,10699;113,00422
1,2757;113,40916;0,66738;113,40916
1,2817;113,81829;0,67353;113,81829
1,2864;114,23406;0,67958;114,23406
1,2907;114,63761;0,68356;114,63761
1,2952;115,04115;0,68750;115,04115
1,3006;115,44505;0,69334;115,44505
1,3111;115,84603;0,70484;115,84603
1,5000;116,05334;1,31287;116,05334
1,5657;116,07976;1,93090;116,07976
1,6164;116,09198;2,55537;116,09198
1,6596;116,10280;3,15925;116,10280
1,7009;116,11025;3,77290;116,11025
1,7422;116,11945;4,39937;116,11945
1,7685;116,12422;4,79605;116,12422
