Part protocol
Network name;Part_OP10_MP-001_2020-08-26_10-27-18_0016_OK.csv
Protocol version;2.01.00

Index;Result information;Process values - curve related;Process values - EO related;Evaluation objects settings;Switch signal settings;Device information;Channel-X settings;Channel-Y settings;Cycle control settings;Evaluation settings;Trigger Y settings;Block settings;Measuring curve;Measuring points;Sequence;
Line;10;30;40;70;100;120;150;190;220;240;250;260;270;280;600;



Result information
Date;2020/08/26
Time;10:27:18
Cycle number;16
Total result;OK
Triggered switch signals
Part serial number;0016
Measuring program name;D57-Left
Measuring program number;1
Zero X offset;0,00;mm
Tara Y offset;0,0;kN









Process values - curve related
Block X;126,30;mm;XMIN-X;-0,12;mm
Block Y;7,4;kN;XMIN-Y;0,0;kN
Ref X;-;mm;XMAX-X;126,30;mm
Peak-peak X;126,42;mm;XMAX-Y;7,4;kN
Peak-peak Y;7,4;kN;YMIN-X;0,74;mm
;;;YMIN-Y;0,0;kN
;;;YMAX-X;126,30;mm
;;;YMAX-Y;7,4;kN

Process values - EO related;Result;Entry;Exit;XMIN-X;XMIN-Y;XMAX-X;XMAX-Y;YMIN-Y;YMIN-X;YMAX-Y;YMAX-X
;;;;mm;kN;mm;kN;kN;mm;kN;mm
EO-01;OK;0,7;0,8;;;;;0,7;124,50;0,8;125,43;;;;;;
EO-02;OK;126,26;126,27;126,26;4,5;126,27;5,1;;;;;;;;;;
EO-03;None;
EO-04;None;
























Evaluation objects settings;Reaction;X reference;Y-Reference;XMin;XMax;YMin;YMax;Entry;Exit;Curve part;Catch zone X;Catch zone Y
EO-01;UNI-BOX;ABSOLUTE;-;124,50;125,70;0,5;3,0;LEFT;RIGHT;ANY;+50%;+50%
EO-02;UNI-BOX;ABSOLUTE;-;125,80;127,20;4,5;5,5;BELOW;ABOVE;ANY;+50%;+50%
EO-03;OFF
EO-04;OFF

























Switch signal settings;Channel;Threshold at;;Trigger from;Reference;Latch until
Type S1;OFF
Type S2;OFF

















Device information
Device type;maXYmos BL
Device type number;5867B1011
Device serial number;5182443
Firmware version;2.3.2 (r22473-BL_v2.3.x)
-
-
-
-
-
IP Address;10.0.0.18
Network name;OP10
Profibus address;10
-
-
-
Station name;OP10
Company name;
Comment;











Channel-X settings
Use the settings from global setup;True
Sensor-X type;Â±10V
Unit;mm
Used range from;0,00;mm
Used range to;200,00;mm
Decimal places;XXXX.XX
Scaling by;Teach-In
Point 1;0,00;mm;-0,350;%
Point 2;200,00;mm;10,000;%
Invert signal;FALSE
Filter;20 Hz
Test point;0,00;mm
Tolerance;2,00;mm
Enable sensor test by dig-input;FALSE
Zoom from;110,00;mm
Zoom to;133,11;mm























Channel-Y settings
Use the settings from global setup;True
Sensor-Y type;Strain Gage
Unit;kN
Used range from;0,0;kN
Used range to;20,0;kN
Decimal places;XXXXX.X
Scaling by;Teach-In
Point 1;0,0;kN;-0,01562;%
Point 2;20,0;kN;2,00000;%
Invert signal;FALSE
Filter;1 Hz
Piezo reset;-
Test point;0,0;kN
Tolerance;0,1;kN
Enable sensor test by dig-input;FALSE
Zoom from;0,0;kN
Zoom to;6,0;kN












Cycle control settings
Use the settings from global setup;True
Measuring function;Y (X)
Delta-X;Automatic
START condition;Dig-Input
STOP condition;Dig-Input
Cycle time out;20,00;s
Turning point RIGHT;YMAX
Turning point LEFT;NONE
Cut curve at;NONE










Evaluation settings
Capture only first NOK-EO for statistics;False
Hysteresis-X;0,0;%
Hysteresis-Y;100,0;%






Trigger Y settings
Threshold;1,9;kN
Value X at TRIGGER Y;0,00;mm
Approach from;BELOW






Block settings
Value X at block;XMAX
Block at;0,00;mm







Measuring curve
Number of measuring points;316
Ref. Graph on;ABSOLUTE
Curve segments;0;315;314;316;


Time;X(ABSOLUTE);Y;X (ABSOLUTE)


s;mm;kN;mm
0,0000;-0,11823;-0,03563;-0,11823
0,0988;0,29567;-0,03573;0,29567
0,1027;0,71470;-0,03573;0,71470
0,1029;0,73949;-0,03574;0,73949
0,1056;1,13512;-0,03574;1,13512
0,1078;1,54821;-0,03574;1,54821
0,1099;1,98761;-0,03574;1,98761
0,1116;2,39069;-0,03574;2,39069
0,1133;2,83253;-0,03574;2,83253
0,1148;3,25738;-0,03573;3,25738
0,1163;3,71191;-0,03573;3,71191
0,1176;4,13361;-0,03573;4,13361
0,1189;4,57766;-0,03573;4,57766
0,1202;5,04266;-0,03573;5,04266
0,1213;5,45529;-0,03573;5,45529
0,1225;5,87711;-0,03572;5,87711
0,1236;6,30335;-0,03572;6,30335
0,1247;6,72843;-0,03572;6,72843
0,1258;7,14746;-0,03572;7,14746
0,1270;7,55671;-0,03572;7,55671
0,1283;8,01892;-0,03572;8,01892
0,1296;8,46285;-0,03571;8,46285
0,1309;8,88875;-0,03571;8,88875
0,1322;9,29683;-0,03570;9,29683
0,1337;9,74252;-0,03569;9,74252
0,1352;10,16794;-0,03568;10,16794
0,1367;10,57521;-0,03566;10,57521
0,1384;11,01612;-0,03566;11,01612
0,1401;11,44435;-0,03565;11,44435
0,1418;11,86500;-0,03563;11,86500
0,1435;12,28205;-0,03561;12,28205
0,1452;12,69747;-0,03560;12,69747
0,1469;13,11265;-0,03558;13,11265
0,1485;13,52912;-0,03556;13,52912
0,1502;13,94838;-0,03553;13,94838
0,1519;14,37113;-0,03550;14,37113
0,1536;14,79726;-0,03547;14,79726
0,1553;15,22641;-0,03547;15,22641
0,1570;15,65789;-0,03545;15,65789
0,1587;16,09194;-0,03542;16,09194
0,1604;16,52854;-0,03538;16,52854
0,1621;16,96747;-0,03535;16,96747
0,1638;17,40815;-0,03531;17,40815
0,1654;17,84987;-0,03527;17,84987
0,1671;18,29276;-0,03522;18,29276
0,1688;18,73716;-0,03518;18,73716
0,1705;19,18296;-0,03513;19,18296
0,1722;19,63003;-0,03513;19,63003
0,1739;20,07769;-0,03509;20,07769
0,1756;20,52605;-0,03503;20,52605
0,1773;20,97534;-0,03498;20,97534
0,1788;21,37610;-0,03492;21,37610
0,1803;21,77813;-0,03486;21,77813
0,1818;22,18121;-0,03480;22,18121
0,1833;22,58476;-0,03480;22,58476
0,1848;22,98830;-0,03473;22,98830
0,1863;23,39185;-0,03467;23,39185
0,1878;23,79563;-0,03460;23,79563
0,1893;24,19999;-0,03453;24,19999
0,1908;24,60470;-0,03453;24,60470
0,1923;25,00941;-0,03446;25,00941
0,1938;25,41354;-0,03438;25,41354
0,1953;25,81685;-0,03431;25,81685
0,1968;26,21970;-0,03423;26,21970
0,1983;26,62219;-0,03423;26,62219
0,1998;27,02469;-0,03414;27,02469
0,2013;27,42719;-0,03406;27,42719
0,2028;27,82922;-0,03397;27,82922
0,2043;28,23033;-0,03388;28,23033
0,2060;28,67997;-0,03388;28,67997
0,2077;29,12797;-0,03379;29,12797
0,2094;29,57459;-0,03369;29,57459
0,2111;30,01957;-0,03360;30,01957
0,2128;30,46281;-0,03349;30,46281
0,2144;30,90383;-0,03339;30,90383
0,2161;31,34230;-0,03329;31,34230
0,2178;31,77844;-0,03319;31,77844
0,2195;32,21213;-0,03308;32,21213
0,2212;32,64361;-0,03297;32,64361
0,2229;33,07300;-0,03297;33,07300
0,2246;33,50029;-0,03286;33,50029
0,2263;33,92537;-0,03274;33,92537
0,2280;34,34847;-0,03262;34,34847
0,2297;34,76947;-0,03250;34,76947
0,2313;35,18850;-0,03239;35,18850
0,2330;35,60555;-0,03226;35,60555
0,2347;36,02027;-0,03214;36,02027
0,2364;36,43266;-0,03202;36,43266
0,2381;36,84284;-0,03189;36,84284
0,2398;37,25058;-0,03189;37,25058
0,2415;37,65598;-0,03176;37,65598
0,2432;38,05918;-0,03163;38,05918
0,2449;38,46017;-0,03150;38,46017
0,2467;38,90340;-0,03136;38,90340
0,2486;39,34431;-0,03124;39,34431
0,2505;39,78278;-0,03110;39,78278
0,2524;40,21915;-0,03096;40,21915
0,2542;40,65377;-0,03082;40,65377
0,2561;41,08688;-0,03068;41,08688
0,2580;41,51871;-0,03053;41,51871
0,2599;41,94926;-0,03039;41,94926
0,2618;42,37853;-0,03024;42,37853
0,2636;42,80629;-0,03010;42,80629
0,2655;43,23242;-0,02995;43,23242
0,2674;43,65668;-0,02980;43,65668
0,2693;44,07908;-0,02965;44,07908
0,2711;44,49939;-0,02950;44,49939
0,2730;44,91795;-0,02936;44,91795
0,2749;45,33500;-0,02920;45,33500
0,2768;45,75088;-0,02905;45,75088
0,2787;46,16595;-0,02889;46,16595
0,2805;46,58009;-0,02874;46,58009
0,2824;46,99330;-0,02858;46,99330
0,2843;47,40522;-0,02842;47,40522
0,2862;47,81564;-0,02826;47,81564
0,2880;48,22419;-0,02811;48,22419
0,2899;48,63123;-0,02795;48,63123
0,2918;49,03675;-0,02779;49,03675
0,2937;49,44111;-0,02763;49,44111
0,2956;49,84431;-0,02747;49,84431
0,2974;50,24669;-0,02731;50,24669
0,2993;50,64814;-0,02714;50,64814
0,3012;51,04878;-0,02698;51,04878
0,3032;51,48852;-0,02682;51,48852
0,3053;51,92699;-0,02665;51,92699
0,3074;52,36429;-0,02649;52,36429
0,3094;52,80008;-0,02616;52,80008
0,3115;53,23459;-0,02600;53,23459
0,3136;53,66781;-0,02583;53,66781
0,3156;54,09999;-0,02566;54,09999
0,3177;54,53124;-0,02550;54,53124
0,3198;54,96133;-0,02533;54,96133
0,3218;55,39001;-0,02515;55,39001
0,3239;55,81707;-0,02499;55,81707
0,3260;56,24238;-0,02482;56,24238
0,3280;56,66572;-0,02465;56,66572
0,3301;57,08742;-0,02432;57,08742
0,3322;57,50761;-0,02414;57,50761
0,3342;57,92675;-0,02398;57,92675
0,3363;58,34497;-0,02381;58,34497
0,3384;58,76225;-0,02364;58,76225
0,3404;59,17825;-0,02347;59,17825
0,3425;59,59250;-0,02330;59,59250
0,3446;60,00501;-0,02314;60,00501
0,3466;60,41554;-0,02296;60,41554
0,3487;60,82432;-0,02279;60,82432
0,3507;61,23160;-0,02245;61,23160
0,3528;61,63747;-0,02228;61,63747
0,3549;62,04241;-0,02212;62,04241
0,3569;62,44631;-0,02194;62,44631
0,3590;62,84916;-0,02177;62,84916
0,3611;63,25107;-0,02161;63,25107
0,3631;63,65194;-0,02143;63,65194
0,3654;64,08808;-0,02127;64,08808
0,3676;64,52282;-0,02092;64,52282
0,3699;64,95593;-0,02076;64,95593
0,3721;65,38741;-0,02059;65,38741
0,3744;65,81726;-0,02042;65,81726
0,3767;66,24560;-0,02025;66,24560
0,3789;66,67277;-0,01991;66,67277
0,3812;67,09913;-0,01975;67,09913
0,3834;67,52468;-0,01958;67,52468
0,3857;67,94953;-0,01940;67,94953
0,3879;68,37344;-0,01924;68,37344
0,3902;68,79654;-0,01891;68,79654
0,3924;69,21860;-0,01874;69,21860
0,3947;69,63983;-0,01857;69,63983
0,3969;70,06026;-0,01841;70,06026
0,3992;70,47987;-0,01824;70,47987
0,4014;70,89866;-0,01791;70,89866
0,4037;71,31629;-0,01774;71,31629
0,4059;71,73276;-0,01757;71,73276
0,4082;72,14794;-0,01741;72,14794
0,4104;72,56231;-0,01724;72,56231
0,4127;72,97610;-0,01691;72,97610
0,4150;73,38931;-0,01675;73,38931
0,4172;73,80228;-0,01658;73,80228
0,4195;74,21467;-0,01641;74,21467
0,4217;74,62637;-0,01625;74,62637
0,4240;75,03701;-0,01592;75,03701
0,4262;75,44673;-0,01576;75,44673
0,4285;75,85516;-0,01559;75,85516
0,4307;76,26267;-0,01543;76,26267
0,4330;76,66924;-0,01527;76,66924
0,4352;77,07500;-0,01494;77,07500
0,4375;77,47982;-0,01478;77,47982
0,4397;77,88360;-0,01462;77,88360
0,4420;78,28622;-0,01445;78,28622
0,4442;78,68767;-0,01430;78,68767
0,4465;79,08796;-0,01397;79,08796
0,4489;79,52072;-0,01380;79,52072
0,4514;79,95243;-0,01365;79,95243
0,4538;80,38310;-0,01348;80,38310
0,4563;80,81272;-0,01317;80,81272
0,4587;81,24082;-0,01300;81,24082
0,4611;81,66695;-0,01284;81,66695
0,4636;82,09087;-0,01252;82,09087
0,4660;82,51269;-0,01236;82,51269
0,4685;82,93276;-0,01220;82,93276
0,4709;83,35132;-0,01188;83,35132
0,4733;83,76849;-0,01172;83,76849
0,4758;84,18414;-0,01156;84,18414
0,4782;84,59804;-0,01141;84,59804
0,4807;85,01032;-0,01109;85,01032
0,4831;85,42108;-0,01093;85,42108
0,4855;85,82998;-0,01077;85,82998
0,4880;86,23737;-0,01045;86,23737
0,4904;86,64301;-0,01030;86,64301
0,4929;87,04690;-0,01014;87,04690
0,4953;87,44917;-0,00982;87,44917
0,4977;87,84992;-0,00968;87,84992
0,5004;88,28001;-0,00952;88,28001
0,5030;88,70869;-0,00920;88,70869
0,5056;89,13587;-0,00905;89,13587
0,5083;89,56095;-0,00889;89,56095
0,5109;89,98382;-0,00858;89,98382
0,5135;90,40505;-0,00843;90,40505
0,5161;90,82490;-0,00811;90,82490
0,5188;91,24392;-0,00796;91,24392
0,5214;91,66214;-0,00781;91,66214
0,5240;92,07977;-0,00750;92,07977
0,5267;92,49693;-0,00734;92,49693
0,5293;92,91363;-0,00704;92,91363
0,5319;93,32963;-0,00688;93,32963
0,5345;93,74481;-0,00673;93,74481
0,5372;94,15919;-0,00643;94,15919
0,5398;94,57274;-0,00627;94,57274
0,5424;94,98595;-0,00596;94,98595
0,5451;95,39869;-0,00582;95,39869
0,5477;95,81120;-0,00566;95,81120
0,5503;96,22313;-0,00535;96,22313
0,5529;96,63435;-0,00520;96,63435
0,5556;97,04488;-0,00490;97,04488
0,5582;97,45460;-0,00475;97,45460
0,5608;97,86373;-0,00459;97,86373
0,5635;98,27228;-0,00430;98,27228
0,5661;98,68048;-0,00414;98,68048
0,5687;99,08810;-0,00384;99,08810
0,5713;99,49526;-0,00369;99,49526
0,5740;99,90171;-0,00354;99,90171
0,5766;100,30747;-0,00324;100,30747
0,5792;100,71230;-0,00309;100,71230
0,5819;101,11619;-0,00279;101,11619
0,5845;101,51881;-0,00264;101,51881
0,5871;101,92038;-0,00248;101,92038
0,5897;102,32101;-0,00219;102,32101
0,5924;102,72107;-0,00204;102,72107
0,5952;103,14917;-0,00174;103,14917
0,5980;103,57472;-0,00159;103,57472
0,6008;103,99572;-0,00129;103,99572
0,6036;104,40998;-0,00114;104,40998
0,6064;104,81725;-0,00084;104,81725
0,6093;105,21858;-0,00069;105,21858
0,6123;105,64168;-0,00039;105,64168
0,6153;106,05908;-0,00024;106,05908
0,6183;106,46996;0,00005;106,46996
0,6213;106,87397;0,00036;106,87397
0,6245;107,29544;0,00051;107,29544
0,6277;107,70795;0,00081;107,70795
0,6309;108,11138;0,00111;108,11138
0,6342;108,52936;0,00141;108,52936
0,6376;108,94047;0,00156;108,94047
0,6410;109,34751;0,00187;109,34751
0,6444;109,75338;0,00218;109,75338
0,6478;110,16031;0,00249;110,16031
0,6511;110,57014;0,00280;110,57014
0,6545;110,98462;0,00296;110,98462
0,6579;111,40516;0,00327;111,40516
0,6611;111,80848;0,00360;111,80848
0,6643;112,21912;0,00392;112,21912
0,6675;112,63827;0,00408;112,63827
0,6705;113,04111;0,00441;113,04111
0,6735;113,45176;0,00458;113,45176
0,6765;113,86997;0,00491;113,86997
0,6795;114,29459;0,00526;114,29459
0,6823;114,69662;0,00543;114,69662
0,6851;115,10005;0,00577;115,10005
0,6879;115,50266;0,00595;115,50266
0,6907;115,90295;0,00631;115,90295
0,6937;116,32652;0,00649;116,32652
0,6968;116,74543;0,00686;116,74543
0,6998;117,15887;0,00704;117,15887
0,7028;117,56497;0,00741;117,56497
0,7061;117,97981;0,00779;117,97981
0,7106;118,39220;0,00819;118,39220
0,7593;118,79237;0,01499;118,79237
1,2557;118,91261;0,61715;118,91261
1,2844;119,32710;0,65247;119,32710
1,2885;119,73390;0,65700;119,73390
1,2921;120,13989;0,66148;120,13989
1,2956;120,55368;0,66593;120,55368
1,2994;120,97178;0,67034;120,97178
1,3035;121,37591;0,67472;121,37591
1,3093;121,78027;0,68126;121,78027
1,3291;122,18242;0,70503;122,18242
1,3369;122,58363;0,71379;122,58363
1,3420;122,99009;0,72046;122,99009
1,3465;123,40621;0,72498;123,40621
1,3510;123,81418;0,72954;123,81418
1,3565;124,21900;0,73652;124,21900
1,3647;124,62371;0,74854;124,62371
1,3803;125,02668;0,76897;125,02668
1,3888;125,43069;0,77983;125,43069
1,3961;125,83854;0,79116;125,83854
1,5823;126,17155;1,39722;126,17155
1,6724;126,20112;2,00424;126,20112
1,7419;126,21858;2,61142;126,21858
1,8020;126,23522;3,21736;126,23522
1,8583;126,24674;3,83166;126,24674
1,9127;126,25838;4,44642;126,25838
1,9672;126,26513;5,06232;126,26513
2,0216;126,27538;5,66345;126,27538
2,0798;126,28481;6,27671;126,28481
2,1418;126,29272;6,88731;126,29272
2,1944;126,29831;7,36834;126,29831
2,1960;126,29877;7,36834;126,29877
