Part protocol
Network name;Part_OP10_MP-001_2020-08-26_16-27-37_0043_OK.csv
Protocol version;2.01.00

Index;Result information;Process values - curve related;Process values - EO related;Evaluation objects settings;Switch signal settings;Device information;Channel-X settings;Channel-Y settings;Cycle control settings;Evaluation settings;Trigger Y settings;Block settings;Measuring curve;Measuring points;Sequence;
Line;10;30;40;70;100;120;150;190;220;240;250;260;270;280;600;



Result information
Date;2020/08/26
Time;16:27:37
Cycle number;43
Total result;OK
Triggered switch signals
Part serial number;0043
Measuring program name;D57-Left
Measuring program number;1
Zero X offset;0,00;mm
Tara Y offset;0,0;kN









Process values - curve related
Block X;126,39;mm;XMIN-X;-0,19;mm
Block Y;7,5;kN;XMIN-Y;0,0;kN
Ref X;-;mm;XMAX-X;126,39;mm
Peak-peak X;126,58;mm;XMAX-Y;7,5;kN
Peak-peak Y;7,6;kN;YMIN-X;-0,19;mm
;;;YMIN-Y;0,0;kN
;;;YMAX-X;126,39;mm
;;;YMAX-Y;7,5;kN

Process values - EO related;Result;Entry;Exit;XMIN-X;XMIN-Y;XMAX-X;XMAX-Y;YMIN-Y;YMIN-X;YMAX-Y;YMAX-X
;;;;mm;kN;mm;kN;kN;mm;kN;mm
EO-01;OK;0,7;0,8;;;;;0,7;124,50;0,8;125,46;;;;;;
EO-02;OK;126,35;126,36;126,35;4,5;126,36;5,0;;;;;;;;;;
EO-03;None;
EO-04;None;
























Evaluation objects settings;Reaction;X reference;Y-Reference;XMin;XMax;YMin;YMax;Entry;Exit;Curve part;Catch zone X;Catch zone Y
EO-01;UNI-BOX;ABSOLUTE;-;124,50;125,70;0,5;3,0;LEFT;RIGHT;ANY;+50%;+50%
EO-02;UNI-BOX;ABSOLUTE;-;125,80;127,20;4,5;5,5;BELOW;ABOVE;ANY;+50%;+50%
EO-03;OFF
EO-04;OFF

























Switch signal settings;Channel;Threshold at;;Trigger from;Reference;Latch until
Type S1;OFF
Type S2;OFF

















Device information
Device type;maXYmos BL
Device type number;5867B1011
Device serial number;5182443
Firmware version;2.3.2 (r22473-BL_v2.3.x)
-
-
-
-
-
IP Address;10.0.0.18
Network name;OP10
Profibus address;10
-
-
-
Station name;OP10
Company name;
Comment;











Channel-X settings
Use the settings from global setup;True
Sensor-X type;Â±10V
Unit;mm
Used range from;0,00;mm
Used range to;200,00;mm
Decimal places;XXXX.XX
Scaling by;Teach-In
Point 1;0,00;mm;-0,350;%
Point 2;200,00;mm;10,000;%
Invert signal;FALSE
Filter;20 Hz
Test point;0,00;mm
Tolerance;2,00;mm
Enable sensor test by dig-input;FALSE
Zoom from;110,00;mm
Zoom to;133,11;mm























Channel-Y settings
Use the settings from global setup;True
Sensor-Y type;Strain Gage
Unit;kN
Used range from;0,0;kN
Used range to;20,0;kN
Decimal places;XXXXX.X
Scaling by;Teach-In
Point 1;0,0;kN;-0,01562;%
Point 2;20,0;kN;2,00000;%
Invert signal;FALSE
Filter;1 Hz
Piezo reset;-
Test point;0,0;kN
Tolerance;0,1;kN
Enable sensor test by dig-input;FALSE
Zoom from;0,0;kN
Zoom to;6,0;kN












Cycle control settings
Use the settings from global setup;True
Measuring function;Y (X)
Delta-X;Automatic
START condition;Dig-Input
STOP condition;Dig-Input
Cycle time out;20,00;s
Turning point RIGHT;YMAX
Turning point LEFT;NONE
Cut curve at;NONE










Evaluation settings
Capture only first NOK-EO for statistics;False
Hysteresis-X;0,0;%
Hysteresis-Y;100,0;%






Trigger Y settings
Threshold;1,9;kN
Value X at TRIGGER Y;0,00;mm
Approach from;BELOW






Block settings
Value X at block;XMAX
Block at;0,00;mm







Measuring curve
Number of measuring points;317
Ref. Graph on;ABSOLUTE
Curve segments;0;316;315;317;


Time;X(ABSOLUTE);Y;X (ABSOLUTE)


s;mm;kN;mm
0,0000;-0,18842;-0,03368;-0,18842
0,0886;0,22397;-0,03366;0,22397
0,0925;0,63625;-0,03366;0,63625
0,0953;1,04876;-0,03366;1,04876
0,0976;1,45219;-0,03365;1,45219
0,0996;1,88006;-0,03365;1,88006
0,1015;2,31724;-0,03365;2,31724
0,1032;2,74989;-0,03365;2,74989
0,1047;3,16542;-0,03364;3,16542
0,1062;3,60959;-0,03364;3,60959
0,1075;4,02187;-0,03364;4,02187
0,1088;4,45614;-0,03364;4,45614
0,1102;4,91172;-0,03363;4,91172
0,1113;5,31748;-0,03363;5,31748
0,1124;5,73371;-0,03363;5,73371
0,1135;6,15646;-0,03362;6,15646
0,1147;6,58061;-0,03361;6,58061
0,1158;7,00103;-0,03361;7,00103
0,1169;7,41354;-0,03360;7,41354
0,1180;7,81499;-0,03360;7,81499
0,1194;8,26661;-0,03360;8,26661
0,1207;8,69926;-0,03359;8,69926
0,1220;9,11316;-0,03359;9,11316
0,1235;9,56408;-0,03358;9,56408
0,1250;9,99312;-0,03357;9,99312
0,1265;10,40202;-0,03355;10,40202
0,1282;10,84130;-0,03354;10,84130
0,1299;11,26416;-0,03352;11,26416
0,1316;11,67644;-0,03350;11,67644
0,1332;12,08301;-0,03350;12,08301
0,1349;12,48702;-0,03348;12,48702
0,1366;12,89011;-0,03347;12,89011
0,1383;13,29365;-0,03345;13,29365
0,1400;13,69953;-0,03342;13,69953
0,1417;14,10901;-0,03339;14,10901
0,1434;14,52268;-0,03336;14,52268
0,1451;14,94019;-0,03334;14,94019
0,1468;15,36073;-0,03330;15,36073
0,1485;15,78407;-0,03327;15,78407
0,1501;16,21043;-0,03327;16,21043
0,1518;16,63958;-0,03323;16,63958
0,1535;17,07141;-0,03320;17,07141
0,1552;17,50510;-0,03316;17,50510
0,1569;17,94054;-0,03311;17,94054
0,1586;18,37761;-0,03307;18,37761
0,1603;18,81666;-0,03302;18,81666
0,1620;19,25745;-0,03298;19,25745
0,1637;19,69952;-0,03292;19,69952
0,1654;20,14253;-0,03287;20,14253
0,1670;20,58681;-0,03287;20,58681
0,1687;21,03273;-0,03282;21,03273
0,1704;21,48085;-0,03275;21,48085
0,1719;21,88091;-0,03270;21,88091
0,1734;22,28189;-0,03263;22,28189
0,1749;22,68369;-0,03257;22,68369
0,1764;23,08584;-0,03257;23,08584
0,1779;23,48857;-0,03249;23,48857
0,1794;23,89235;-0,03243;23,89235
0,1809;24,29695;-0,03236;24,29695
0,1824;24,70224;-0,03228;24,70224
0,1839;25,10776;-0,03228;25,10776
0,1854;25,51317;-0,03220;25,51317
0,1869;25,91823;-0,03212;25,91823
0,1884;26,32329;-0,03204;26,32329
0,1899;26,72835;-0,03196;26,72835
0,1914;27,13341;-0,03196;27,13341
0,1930;27,53812;-0,03186;27,53812
0,1945;27,94213;-0,03177;27,94213
0,1960;28,34509;-0,03168;28,34509
0,1975;28,74689;-0,03159;28,74689
0,1990;29,14765;-0,03159;29,14765
0,2006;29,59717;-0,03149;29,59717
0,2023;30,04529;-0,03139;30,04529
0,2040;30,49167;-0,03129;30,49167
0,2057;30,93596;-0,03118;30,93596
0,2074;31,37792;-0,03108;31,37792
0,2091;31,81754;-0,03097;31,81754
0,2108;32,25485;-0,03086;32,25485
0,2125;32,68994;-0,03074;32,68994
0,2142;33,12281;-0,03062;33,12281
0,2159;33,55325;-0,03062;33,55325
0,2175;33,98147;-0,03051;33,98147
0,2192;34,40760;-0,03039;34,40760
0,2209;34,83174;-0,03027;34,83174
0,2226;35,25391;-0,03014;35,25391
0,2243;35,67399;-0,03002;35,67399
0,2260;36,09197;-0,02989;36,09197
0,2277;36,50774;-0,02976;36,50774
0,2294;36,92129;-0,02963;36,92129
0,2311;37,33275;-0,02950;37,33275
0,2328;37,74212;-0,02950;37,74212
0,2344;38,14939;-0,02937;38,14939
0,2361;38,55456;-0,02923;38,55456
0,2378;38,95776;-0,02910;38,95776
0,2395;39,35898;-0,02896;39,35898
0,2414;39,80280;-0,02881;39,80280
0,2433;40,24464;-0,02867;40,24464
0,2451;40,68508;-0,02852;40,68508
0,2470;41,12413;-0,02838;41,12413
0,2489;41,56213;-0,02824;41,56213
0,2508;41,99885;-0,02809;41,99885
0,2527;42,43417;-0,02794;42,43417
0,2545;42,86763;-0,02779;42,86763
0,2564;43,29900;-0,02763;43,29900
0,2583;43,72815;-0,02749;43,72815
0,2602;44,15509;-0,02733;44,15509
0,2620;44,57994;-0,02717;44,57994
0,2639;45,00280;-0,02702;45,00280
0,2658;45,42404;-0,02687;45,42404
0,2677;45,84400;-0,02671;45,84400
0,2695;46,26268;-0,02654;46,26268
0,2714;46,68019;-0,02638;46,68019
0,2733;47,09596;-0,02623;47,09596
0,2752;47,50998;-0,02606;47,50998
0,2771;47,92179;-0,02590;47,92179
0,2789;48,33162;-0,02574;48,33162
0,2808;48,73971;-0,02558;48,73971
0,2827;49,14616;-0,02541;49,14616
0,2846;49,55134;-0,02525;49,55134
0,2864;49,95524;-0,02508;49,95524
0,2883;50,35797;-0,02491;50,35797
0,2902;50,75953;-0,02475;50,75953
0,2921;51,15959;-0,02458;51,15959
0,2941;51,59794;-0,02441;51,59794
0,2962;52,03454;-0,02425;52,03454
0,2983;52,46951;-0,02408;52,46951
0,3003;52,90309;-0,02391;52,90309
0,3024;53,33562;-0,02357;53,33562
0,3045;53,76722;-0,02340;53,76722
0,3065;54,19788;-0,02324;54,19788
0,3086;54,62750;-0,02306;54,62750
0,3107;55,05584;-0,02289;55,05584
0,3127;55,48266;-0,02273;55,48266
0,3148;55,90809;-0,02255;55,90809
0,3169;56,33189;-0,02239;56,33189
0,3189;56,75429;-0,02221;56,75429
0,3210;57,17553;-0,02204;57,17553
0,3231;57,59584;-0,02170;57,59584
0,3251;58,01533;-0,02152;58,01533
0,3272;58,43389;-0,02136;58,43389
0,3292;58,85152;-0,02118;58,85152
0,3313;59,26787;-0,02102;59,26787
0,3334;59,68283;-0,02084;59,68283
0,3354;60,09627;-0,02067;60,09627
0,3375;60,50819;-0,02050;60,50819
0,3396;60,91896;-0,02033;60,91896
0,3416;61,32879;-0,02015;61,32879
0,3437;61,73769;-0,01981;61,73769
0,3458;62,14554;-0,01965;62,14554
0,3478;62,55234;-0,01947;62,55234
0,3499;62,95775;-0,01930;62,95775
0,3520;63,36188;-0,01914;63,36188
0,3540;63,76473;-0,01896;63,76473
0,3561;64,16630;-0,01879;64,16630
0,3582;64,56705;-0,01863;64,56705
0,3604;65,00319;-0,01845;65,00319
0,3627;65,43862;-0,01812;65,43862
0,3649;65,87325;-0,01794;65,87325
0,3672;66,30682;-0,01778;66,30682
0,3694;66,73924;-0,01761;66,73924
0,3717;67,17049;-0,01744;67,17049
0,3739;67,60045;-0,01710;67,60045
0,3762;68,02902;-0,01693;68,02902
0,3784;68,45655;-0,01677;68,45655
0,3807;68,88326;-0,01660;68,88326
0,3829;69,30904;-0,01643;69,30904
0,3852;69,73388;-0,01610;69,73388
0,3874;70,15791;-0,01593;70,15791
0,3897;70,58090;-0,01577;70,58090
0,3920;71,00283;-0,01560;71,00283
0,3942;71,42361;-0,01543;71,42361
0,3965;71,84322;-0,01511;71,84322
0,3987;72,26201;-0,01494;72,26201
0,4010;72,67999;-0,01478;72,67999
0,4032;73,09750;-0,01461;73,09750
0,4055;73,51432;-0,01445;73,51432
0,4077;73,93067;-0,01412;73,93067
0,4100;74,34632;-0,01396;74,34632
0,4122;74,76139;-0,01380;74,76139
0,4145;75,17541;-0,01364;75,17541
0,4167;75,58862;-0,01347;75,58862
0,4190;76,00089;-0,01315;76,00089
0,4212;76,41212;-0,01299;76,41212
0,4235;76,82253;-0,01283;76,82253
0,4257;77,23178;-0,01267;77,23178
0,4280;77,63975;-0,01251;77,63975
0,4303;78,04633;-0,01218;78,04633
0,4325;78,45150;-0,01203;78,45150
0,4348;78,85516;-0,01187;78,85516
0,4370;79,25778;-0,01171;79,25778
0,4393;79,65946;-0,01156;79,65946
0,4415;80,06045;-0,01123;80,06045
0,4438;80,46085;-0,01107;80,46085
0,4462;80,89361;-0,01092;80,89361
0,4487;81,32474;-0,01076;81,32474
0,4511;81,75436;-0,01044;81,75436
0,4535;82,18224;-0,01030;82,18224
0,4560;82,60860;-0,01014;82,60860
0,4584;83,03333;-0,00982;83,03333
0,4609;83,45666;-0,00967;83,45666
0,4633;83,87813;-0,00952;83,87813
0,4657;84,29762;-0,00920;84,29762
0,4682;84,71514;-0,00905;84,71514
0,4706;85,13067;-0,00890;85,13067
0,4731;85,54423;-0,00874;85,54423
0,4755;85,95650;-0,00844;85,95650
0,4779;86,36750;-0,00829;86,36750
0,4804;86,77745;-0,00813;86,77745
0,4828;87,18623;-0,00782;87,18623
0,4853;87,59362;-0,00768;87,59362
0,4877;87,99984;-0,00752;87,99984
0,4901;88,40455;-0,00722;88,40455
0,4926;88,80763;-0,00707;88,80763
0,4950;89,20908;-0,00692;89,20908
0,4977;89,63917;-0,00661;89,63917
0,5003;90,06681;-0,00646;90,06681
0,5029;90,49200;-0,00632;90,49200
0,5055;90,91510;-0,00602;90,91510
0,5082;91,33646;-0,00587;91,33646
0,5108;91,75630;-0,00557;91,75630
0,5134;92,17486;-0,00542;92,17486
0,5161;92,59226;-0,00527;92,59226
0,5187;93,00826;-0,00497;93,00826
0,5213;93,42310;-0,00483;93,42310
0,5239;93,83665;-0,00454;93,83665
0,5266;94,24928;-0,00439;94,24928
0,5292;94,66097;-0,00424;94,66097
0,5318;95,07185;-0,00395;95,07185
0,5345;95,48191;-0,00381;95,48191
0,5371;95,89105;-0,00351;95,89105
0,5397;96,29913;-0,00336;96,29913
0,5423;96,70629;-0,00322;96,70629
0,5450;97,11286;-0,00293;97,11286
0,5476;97,51931;-0,00279;97,51931
0,5502;97,92565;-0,00249;97,92565
0,5528;98,33199;-0,00235;98,33199
0,5555;98,73833;-0,00221;98,73833
0,5581;99,14467;-0,00192;99,14467
0,5607;99,55043;-0,00177;99,55043
0,5634;99,95502;-0,00148;99,95502
0,5660;100,35869;-0,00134;100,35869
0,5686;100,76142;-0,00120;100,76142
0,5712;101,16380;-0,00091;101,16380
0,5739;101,56607;-0,00077;101,56607
0,5765;101,96868;-0,00048;101,96868
0,5791;102,37130;-0,00034;102,37130
0,5818;102,77368;-0,00020;102,77368
0,5844;103,17501;0,00009;103,17501
0,5872;103,60126;0,00024;103,60126
0,5900;104,02075;0,00052;104,02075
0,5928;104,43081;0,00066;104,43081
0,5958;104,85694;0,00095;104,85694
0,5988;105,27317;0,00109;105,27317
0,6018;105,68172;0,00138;105,68172
0,6049;106,08457;0,00166;106,08457
0,6080;106,50686;0,00181;106,50686
0,6112;106,92414;0,00210;106,92414
0,6144;107,33723;0,00239;107,33723
0,6176;107,74636;0,00253;107,74636
0,6208;108,15107;0,00282;108,15107
0,6242;108,57394;0,00312;108,57394
0,6276;108,99192;0,00341;108,99192
0,6309;109,40710;0,00371;109,40710
0,6343;109,82136;0,00386;109,82136
0,6377;110,23724;0,00415;110,23724
0,6411;110,65732;0,00446;110,65732
0,6443;111,06005;0,00476;111,06005
0,6475;111,47023;0,00492;111,47023
0,6507;111,88879;0,00524;111,88879
0,6537;112,28978;0,00555;112,28978
0,6567;112,69530;0,00572;112,69530
0,6597;113,10280;0,00604;113,10280
0,6627;113,51054;0,00621;113,51054
0,6657;113,91676;0,00654;113,91676
0,6687;114,32124;0,00688;114,32124
0,6717;114,72339;0,00705;114,72339
0,6749;115,14672;0,00739;115,14672
0,6781;115,56470;0,00775;115,56470
0,6813;115,97791;0,00793;115,97791
0,6845;116,38763;0,00829;116,38763
0,6876;116,79734;0,00866;116,79734
0,6908;117,21171;0,00885;117,21171
0,6940;117,62550;0,00923;117,62550
0,6976;118,04441;0,00962;118,04441
0,7023;118,45261;0,01023;118,45261
0,7841;118,85267;0,02592;118,85267
1,2486;118,92728;0,62832;118,92728
1,2657;119,33129;0,64961;119,33129
1,2700;119,75078;0,65421;119,75078
1,2738;120,16236;0,65876;120,16236
1,2775;120,56579;0,66327;120,56579
1,2817;120,98132;0,66773;120,98132
1,2864;121,39127;0,67435;121,39127
1,2929;121,79575;0,68091;121,79575
1,3019;122,19766;0,69168;122,19766
1,3100;122,59912;0,70024;122,59912
1,3162;123,01209;0,70878;123,01209
1,3216;123,41878;0,71307;123,41878
1,3275;123,83082;0,72167;123,83082
1,3333;124,23483;0,72819;124,23483
1,3397;124,64385;0,73477;124,64385
1,3464;125,05170;0,74369;125,05170
1,3526;125,45618;0,75048;125,45618
1,3594;125,85938;0,75972;125,85938
1,5697;126,25722;1,36771;126,25722
1,6579;126,29214;1,98025;126,29214
1,7236;126,30878;2,58234;126,30878
1,7818;126,32391;3,19768;126,32391
1,8362;126,33451;3,81760;126,33451
1,8888;126,34533;4,43361;126,34533
1,9414;126,35592;5,04739;126,35592
1,9958;126,36337;5,66478;126,36337
2,0521;126,37140;6,27200;126,37140
2,1122;126,38083;6,87687;126,38083
2,1779;126,38793;7,48471;126,38793
2,1836;126,38921;7,53421;126,38921
2,1841;126,38945;7,53421;126,38945
