Part protocol
Network name;Part_OP10_MP-002_2020-08-26_15-45-17_0029_OK.csv
Protocol version;2.01.00

Index;Result information;Process values - curve related;Process values - EO related;Evaluation objects settings;Switch signal settings;Device information;Channel-X settings;Channel-Y settings;Cycle control settings;Evaluation settings;Trigger Y settings;Block settings;Measuring curve;Measuring points;Sequence;
Line;10;30;40;70;100;120;150;190;220;240;250;260;270;280;570;



Result information
Date;2020/08/26
Time;15:45:17
Cycle number;29
Total result;OK
Triggered switch signals
Part serial number;0029
Measuring program name;D57-Right
Measuring program number;2
Zero X offset;0,00;mm
Tara Y offset;0,0;kN









Process values - curve related
Block X;116,07;mm;XMIN-X;-0,04;mm
Block Y;4,6;kN;XMIN-Y;0,0;kN
Ref X;-;mm;XMAX-X;116,07;mm
Peak-peak X;116,11;mm;XMAX-Y;4,6;kN
Peak-peak Y;4,7;kN;YMIN-X;0,36;mm
;;;YMIN-Y;0,0;kN
;;;YMAX-X;116,07;mm
;;;YMAX-Y;4,6;kN

Process values - EO related;Result;Entry;Exit;XMIN-X;XMIN-Y;XMAX-X;XMAX-Y;YMIN-Y;YMIN-X;YMAX-Y;YMAX-X
;;;;mm;kN;mm;kN;kN;mm;kN;mm
EO-01;OK;0,7;0,7;;;;;0,7;115,00;0,7;115,22;;;;;;
EO-02;OK;;116,05;116,04;2,3;116,05;3,1;2,3;116,04;;;;;;;;
EO-03;None;
EO-04;None;
























Evaluation objects settings;Reaction;X reference;Y-Reference;XMin;XMax;YMin;YMax;Entry;Exit;Curve part;Catch zone X;Catch zone Y
EO-01;UNI-BOX;ABSOLUTE;-;115,00;115,50;0,4;2,0;LEFT;RIGHT;ANY;+50%;+50%
EO-02;UNI-BOX;ABSOLUTE;-;115,40;117,10;2,3;3,3;ANY;ABOVE;ANY;+50%;+50%
EO-03;OFF
EO-04;OFF

























Switch signal settings;Channel;Threshold at;;Trigger from;Reference;Latch until
Type S1;OFF
Type S2;OFF

















Device information
Device type;maXYmos BL
Device type number;5867B1011
Device serial number;5182443
Firmware version;2.3.2 (r22473-BL_v2.3.x)
-
-
-
-
-
IP Address;10.0.0.18
Network name;OP10
Profibus address;10
-
-
-
Station name;OP10
Company name;
Comment;











Channel-X settings
Use the settings from global setup;True
Sensor-X type;Â±10V
Unit;mm
Used range from;0,00;mm
Used range to;200,00;mm
Decimal places;XXXX.XX
Scaling by;Teach-In
Point 1;0,00;mm;-0,350;%
Point 2;200,00;mm;10,000;%
Invert signal;FALSE
Filter;20 Hz
Test point;0,00;mm
Tolerance;2,00;mm
Enable sensor test by dig-input;FALSE
Zoom from;100,00;mm
Zoom to;120,00;mm























Channel-Y settings
Use the settings from global setup;True
Sensor-Y type;Strain Gage
Unit;kN
Used range from;0,0;kN
Used range to;20,0;kN
Decimal places;XXXXX.X
Scaling by;Teach-In
Point 1;0,0;kN;-0,01562;%
Point 2;20,0;kN;2,00000;%
Invert signal;FALSE
Filter;1 Hz
Piezo reset;-
Test point;0,0;kN
Tolerance;0,1;kN
Enable sensor test by dig-input;FALSE
Zoom from;0,0;kN
Zoom to;5,0;kN












Cycle control settings
Use the settings from global setup;True
Measuring function;Y (X)
Delta-X;Automatic
START condition;Dig-Input
STOP condition;Dig-Input
Cycle time out;20,00;s
Turning point RIGHT;YMAX
Turning point LEFT;NONE
Cut curve at;NONE










Evaluation settings
Capture only first NOK-EO for statistics;False
Hysteresis-X;0,0;%
Hysteresis-Y;100,0;%






Trigger Y settings
Threshold;1,8;kN
Value X at TRIGGER Y;0,00;mm
Approach from;BELOW






Block settings
Value X at block;XMAX
Block at;0,00;mm







Measuring curve
Number of measuring points;287
Ref. Graph on;ABSOLUTE
Curve segments;0;286;285;287;


Time;X(ABSOLUTE);Y;X (ABSOLUTE)


s;mm;kN;mm
0,0000;-0,03629;-0,03536;-0,03629
0,1108;0,36388;-0,03545;0,36388
0,1141;0,78884;-0,03545;0,78884
0,1164;1,19553;-0,03544;1,19553
0,1183;1,61526;-0,03544;1,61526
0,1200;2,05640;-0,03543;2,05640
0,1215;2,49545;-0,03543;2,49545
0,1228;2,90900;-0,03542;2,90900
0,1241;3,34153;-0,03541;3,34153
0,1254;3,78442;-0,03541;3,78442
0,1267;4,23080;-0,03540;4,23080
0,1280;4,67567;-0,03538;4,67567
0,1294;5,11553;-0,03538;5,11553
0,1307;5,54759;-0,03537;5,54759
0,1320;5,96999;-0,03535;5,96999
0,1333;6,38146;-0,03535;6,38146
0,1346;6,78221;-0,03534;6,78221
0,1361;7,22859;-0,03531;7,22859
0,1376;7,66507;-0,03529;7,66507
0,1391;8,09423;-0,03525;8,09423
0,1406;8,51779;-0,03525;8,51779
0,1421;8,93740;-0,03522;8,93740
0,1436;9,35503;-0,03519;9,35503
0,1451;9,77220;-0,03515;9,77220
0,1466;10,19041;-0,03510;10,19041
0,1481;10,61048;-0,03510;10,61048
0,1496;11,03277;-0,03506;11,03277
0,1511;11,45727;-0,03501;11,45727
0,1526;11,88363;-0,03496;11,88363
0,1541;12,31115;-0,03490;12,31115
0,1556;12,73902;-0,03490;12,73902
0,1571;13,16666;-0,03484;13,16666
0,1586;13,59314;-0,03477;13,59314
0,1601;14,01752;-0,03470;14,01752
0,1616;14,43934;-0,03461;14,43934
0,1631;14,85779;-0,03461;14,85779
0,1646;15,27239;-0,03454;15,27239
0,1662;15,68292;-0,03445;15,68292
0,1677;16,08903;-0,03435;16,08903
0,1692;16,49059;-0,03426;16,49059
0,1708;16,93686;-0,03426;16,93686
0,1725;17,37718;-0,03416;17,37718
0,1742;17,81181;-0,03405;17,81181
0,1759;18,24073;-0,03394;18,24073
0,1776;18,66464;-0,03382;18,66464
0,1793;19,08355;-0,03370;19,08355
0,1810;19,49804;-0,03357;19,49804
0,1827;19,90857;-0,03343;19,90857
0,1844;20,31549;-0,03329;20,31549
0,1861;20,71916;-0,03314;20,71916
0,1877;21,11967;-0,03314;21,11967
0,1896;21,56152;-0,03299;21,56152
0,1915;22,00010;-0,03284;22,00010
0,1934;22,43577;-0,03267;22,43577
0,1953;22,86876;-0,03250;22,86876
0,1971;23,29955;-0,03233;23,29955
0,1990;23,72823;-0,03214;23,72823
0,2009;24,15483;-0,03196;24,15483
0,2028;24,57944;-0,03176;24,57944
0,2046;25,00207;-0,03156;25,00207
0,2065;25,42296;-0,03136;25,42296
0,2084;25,84211;-0,03114;25,84211
0,2103;26,25985;-0,03093;26,25985
0,2121;26,67667;-0,03070;26,67667
0,2140;27,09279;-0,03047;27,09279
0,2159;27,50832;-0,03024;27,50832
0,2178;27,92339;-0,02999;27,92339
0,2197;28,33823;-0,02974;28,33823
0,2215;28,75260;-0,02949;28,75260
0,2234;29,16662;-0,02922;29,16662
0,2253;29,58017;-0,02895;29,58017
0,2272;29,99315;-0,02868;29,99315
0,2290;30,40566;-0,02839;30,40566
0,2309;30,81758;-0,02811;30,81758
0,2328;31,22928;-0,02781;31,22928
0,2347;31,64086;-0,02751;31,64086
0,2366;32,05232;-0,02721;32,05232
0,2384;32,46366;-0,02689;32,46366
0,2403;32,87489;-0,02658;32,87489
0,2422;33,28600;-0,02626;33,28600
0,2441;33,69688;-0,02592;33,69688
0,2459;34,10776;-0,02559;34,10776
0,2478;34,51852;-0,02525;34,51852
0,2497;34,92894;-0,02489;34,92894
0,2516;35,33900;-0,02453;35,33900
0,2534;35,74871;-0,02417;35,74871
0,2553;36,15808;-0,02381;36,15808
0,2572;36,56733;-0,02343;36,56733
0,2591;36,97635;-0,02305;36,97635
0,2610;37,38490;-0,02267;37,38490
0,2628;37,79322;-0,02228;37,79322
0,2647;38,20095;-0,02189;38,20095
0,2666;38,60834;-0,02148;38,60834
0,2685;39,01526;-0,02107;39,01526
0,2703;39,42172;-0,02066;39,42172
0,2722;39,82771;-0,02025;39,82771
0,2741;40,23312;-0,01982;40,23312
0,2760;40,63794;-0,01939;40,63794
0,2779;41,04207;-0,01895;41,04207
0,2797;41,44515;-0,01852;41,44515
0,2816;41,84730;-0,01807;41,84730
0,2835;42,24817;-0,01762;42,24817
0,2856;42,68791;-0,01670;42,68791
0,2876;43,12615;-0,01624;43,12615
0,2897;43,56287;-0,01577;43,56287
0,2917;43,99830;-0,01529;43,99830
0,2938;44,43223;-0,01481;44,43223
0,2959;44,86441;-0,01433;44,86441
0,2979;45,29473;-0,01384;45,29473
0,3000;45,72318;-0,01335;45,72318
0,3021;46,14977;-0,01285;46,14977
0,3041;46,57450;-0,01235;46,57450
0,3062;46,99749;-0,01133;46,99749
0,3083;47,41861;-0,01082;47,41861
0,3103;47,83787;-0,01031;47,83787
0,3124;48,25515;-0,00979;48,25515
0,3145;48,67057;-0,00926;48,67057
0,3165;49,08401;-0,00873;49,08401
0,3186;49,49570;-0,00819;49,49570
0,3207;49,90565;-0,00766;49,90565
0,3227;50,31374;-0,00712;50,31374
0,3248;50,72008;-0,00658;50,72008
0,3269;51,12455;-0,00548;51,12455
0,3289;51,52740;-0,00494;51,52740
0,3310;51,92897;-0,00438;51,92897
0,3331;52,32926;-0,00383;52,32926
0,3353;52,76458;-0,00326;52,76458
0,3376;53,19827;-0,00270;53,19827
0,3398;53,63022;-0,00213;53,63022
0,3421;54,06030;-0,00099;54,06030
0,3443;54,48852;-0,00043;54,48852
0,3466;54,91523;0,00015;54,91523
0,3488;55,34078;0,00073;55,34078
0,3511;55,76527;0,00130;55,76527
0,3533;56,18872;0,00247;56,18872
0,3556;56,61124;0,00305;56,61124
0,3578;57,03283;0,00364;57,03283
0,3601;57,45337;0,00422;57,45337
0,3623;57,87321;0,00481;57,87321
0,3646;58,29259;0,00600;58,29259
0,3668;58,71162;0,00659;58,71162
0,3691;59,13029;0,00718;59,13029
0,3714;59,54839;0,00777;59,54839
0,3736;59,96625;0,00837;59,96625
0,3759;60,38388;0,00956;60,38388
0,3781;60,80128;0,01016;60,80128
0,3804;61,21821;0,01075;61,21821
0,3826;61,63479;0,01136;61,63479
0,3849;62,05079;0,01196;62,05079
0,3871;62,46609;0,01315;62,46609
0,3894;62,88058;0,01375;62,88058
0,3916;63,29425;0,01435;63,29425
0,3939;63,70723;0,01496;63,70723
0,3961;64,11939;0,01556;64,11939
0,3984;64,53097;0,01675;64,53097
0,4006;64,94184;0,01735;64,94184
0,4029;65,35179;0,01796;65,35179
0,4051;65,76069;0,01856;65,76069
0,4074;66,16843;0,01915;66,16843
0,4096;66,57477;0,02035;66,57477
0,4119;66,97983;0,02095;66,97983
0,4142;67,38372;0,02154;67,38372
0,4164;67,78692;0,02214;67,78692
0,4187;68,18954;0,02273;68,18954
0,4209;68,59157;0,02392;68,59157
0,4232;68,99279;0,02451;68,99279
0,4254;69,39296;0,02510;69,39296
0,4279;69,82560;0,02569;69,82560
0,4303;70,25708;0,02687;70,25708
0,4327;70,68775;0,02745;70,68775
0,4352;71,11725;0,02804;71,11725
0,4376;71,54571;0,02920;71,54571
0,4401;71,97277;0,02978;71,97277
0,4425;72,39831;0,03036;72,39831
0,4449;72,82257;0,03093;72,82257
0,4474;73,24556;0,03208;73,24556
0,4498;73,66726;0,03266;73,66726
0,4523;74,08780;0,03322;74,08780
0,4547;74,50706;0,03436;74,50706
0,4571;74,92469;0,03491;74,92469
0,4596;75,34058;0,03548;75,34058
0,4620;75,75460;0,03660;75,75460
0,4645;76,16699;0,03715;76,16699
0,4669;76,57775;0,03770;76,57775
0,4694;76,98735;0,03826;76,98735
0,4718;77,39590;0,03935;77,39590
0,4742;77,80329;0,03989;77,80329
0,4767;78,20916;0,04043;78,20916
0,4791;78,61376;0,04151;78,61376
0,4816;79,01707;0,04204;79,01707
0,4840;79,41922;0,04258;79,41922
0,4864;79,82021;0,04363;79,82021
0,4891;80,25052;0,04415;80,25052
0,4917;80,67956;0,04468;80,67956
0,4943;81,10697;0,04572;81,10697
0,4969;81,53263;0,04623;81,53263
0,4996;81,95666;0,04724;81,95666
0,5022;82,37895;0,04775;82,37895
0,5048;82,79960;0,04825;82,79960
0,5075;83,21886;0,04925;83,21886
0,5101;83,63684;0,04974;83,63684
0,5127;84,05377;0,05073;84,05377
0,5153;84,46989;0,05122;84,46989
0,5180;84,88542;0,05170;84,88542
0,5206;85,30038;0,05265;85,30038
0,5232;85,71510;0,05313;85,71510
0,5259;86,12947;0,05407;86,12947
0,5285;86,54372;0,05454;86,54372
0,5311;86,95716;0,05500;86,95716
0,5337;87,36967;0,05592;87,36967
0,5364;87,78102;0,05637;87,78102
0,5390;88,19108;0,05728;88,19108
0,5416;88,59998;0,05772;88,59998
0,5443;89,00795;0,05817;89,00795
0,5469;89,41510;0,05905;89,41510
0,5495;89,82168;0,05948;89,82168
0,5521;90,22743;0,06034;90,22743
0,5548;90,63238;0,06077;90,63238
0,5574;91,03662;0,06119;91,03662
0,5600;91,44028;0,06203;91,44028
0,5627;91,84325;0,06244;91,84325
0,5653;92,24575;0,06327;92,24575
0,5679;92,64743;0,06368;92,64743
0,5705;93,04830;0,06407;93,04830
0,5734;93,47664;0,06488;93,47664
0,5762;93,90346;0,06527;93,90346
0,5790;94,32889;0,06605;94,32889
0,5818;94,75304;0,06644;94,75304
0,5846;95,17602;0,06721;95,17602
0,5874;95,59808;0,06759;95,59808
0,5903;96,01862;0,06834;96,01862
0,5931;96,43764;0,06871;96,43764
0,5959;96,85516;0,06944;96,85516
0,5987;97,27174;0,06980;97,27174
0,6015;97,68786;0,07053;97,68786
0,6043;98,10351;0,07088;98,10351
0,6072;98,51881;0,07158;98,51881
0,6100;98,93376;0,07193;98,93376
0,6128;99,34825;0,07262;99,34825
0,6156;99,76204;0,07296;99,76204
0,6184;100,17478;0,07364;100,17478
0,6212;100,58647;0,07397;100,58647
0,6240;100,99700;0,07463;100,99700
0,6269;101,40625;0,07495;101,40625
0,6297;101,81422;0,07560;101,81422
0,6325;102,22080;0,07592;102,22080
0,6353;102,62585;0,07655;102,62585
0,6381;103,02963;0,07686;103,02963
0,6409;103,43248;0,07748;103,43248
0,6438;103,83451;0,07778;103,83451
0,6466;104,23643;0,07838;104,23643
0,6494;104,63870;0,07869;104,63870
0,6522;105,04119;0,07928;105,04119
0,6550;105,44381;0,07957;105,44381
0,6578;105,84619;0,08015;105,84619
0,6607;106,24799;0,08044;106,24799
0,6635;106,64828;0,08100;106,64828
0,6665;107,07045;0,08128;107,07045
0,6695;107,48366;0,08184;107,48366
0,6725;107,88406;0,08239;107,88406
0,6757;108,29005;0,08266;108,29005
0,6792;108,71036;0,08320;108,71036
0,6832;109,11914;0,08374;109,11914
0,6881;109,52362;0,08452;109,52362
0,6963;109,92553;0,08557;109,92553
0,7568;110,32710;0,09533;110,32710
0,7664;110,73449;0,09731;110,73449
0,7726;111,13862;0,09860;111,13862
0,7778;111,55404;0,09999;111,55404
0,7825;111,96317;0,10096;111,96317
0,7872;112,36916;0,10251;112,36916
0,7932;112,77340;0,10417;112,77340
1,2682;113,17625;0,67139;113,17625
1,2757;113,58503;0,67986;113,58503
1,2802;113,99964;0,68402;113,99964
1,2841;114,40435;0,68814;114,40435
1,2881;114,81441;0,69424;114,81441
1,2924;115,22087;0,69825;115,22087
1,2984;115,62139;0,70422;115,62139
1,4890;116,00270;1,31238;116,00270
1,5528;116,02656;1,91513;116,02656
1,6016;116,04007;2,51600;116,04007
1,6448;116,05182;3,11945;116,05182
1,6861;116,06067;3,73390;116,06067
1,7274;116,07079;4,36203;116,07079
1,7462;116,07242;4,64680;116,07242
1,7467;116,07254;4,64680;116,07254
