Part protocol
Network name;Part_OP10_MP-002_2020-08-26_16-27-31_0043_OK.csv
Protocol version;2.01.00

Index;Result information;Process values - curve related;Process values - EO related;Evaluation objects settings;Switch signal settings;Device information;Channel-X settings;Channel-Y settings;Cycle control settings;Evaluation settings;Trigger Y settings;Block settings;Measuring curve;Measuring points;Sequence;
Line;10;30;40;70;100;120;150;190;220;240;250;260;270;280;570;



Result information
Date;2020/08/26
Time;16:27:31
Cycle number;43
Total result;OK
Triggered switch signals
Part serial number;0043
Measuring program name;D57-Right
Measuring program number;2
Zero X offset;0,00;mm
Tara Y offset;0,0;kN









Process values - curve related
Block X;116,08;mm;XMIN-X;-0,04;mm
Block Y;4,7;kN;XMIN-Y;0,0;kN
Ref X;-;mm;XMAX-X;116,08;mm
Peak-peak X;116,12;mm;XMAX-Y;4,7;kN
Peak-peak Y;4,7;kN;YMIN-X;0,37;mm
;;;YMIN-Y;0,0;kN
;;;YMAX-X;116,08;mm
;;;YMAX-Y;4,7;kN

Process values - EO related;Result;Entry;Exit;XMIN-X;XMIN-Y;XMAX-X;XMAX-Y;YMIN-Y;YMIN-X;YMAX-Y;YMAX-X
;;;;mm;kN;mm;kN;kN;mm;kN;mm
EO-01;OK;0,7;0,7;;;;;0,7;115,00;0,7;115,38;;;;;;
EO-02;OK;;116,06;116,04;2,3;116,06;3,1;2,3;116,04;;;;;;;;
EO-03;None;
EO-04;None;
























Evaluation objects settings;Reaction;X reference;Y-Reference;XMin;XMax;YMin;YMax;Entry;Exit;Curve part;Catch zone X;Catch zone Y
EO-01;UNI-BOX;ABSOLUTE;-;115,00;115,50;0,4;2,0;LEFT;RIGHT;ANY;+50%;+50%
EO-02;UNI-BOX;ABSOLUTE;-;115,40;117,10;2,3;3,3;ANY;ABOVE;ANY;+50%;+50%
EO-03;OFF
EO-04;OFF

























Switch signal settings;Channel;Threshold at;;Trigger from;Reference;Latch until
Type S1;OFF
Type S2;OFF

















Device information
Device type;maXYmos BL
Device type number;5867B1011
Device serial number;5182443
Firmware version;2.3.2 (r22473-BL_v2.3.x)
-
-
-
-
-
IP Address;10.0.0.18
Network name;OP10
Profibus address;10
-
-
-
Station name;OP10
Company name;
Comment;











Channel-X settings
Use the settings from global setup;True
Sensor-X type;Â±10V
Unit;mm
Used range from;0,00;mm
Used range to;200,00;mm
Decimal places;XXXX.XX
Scaling by;Teach-In
Point 1;0,00;mm;-0,350;%
Point 2;200,00;mm;10,000;%
Invert signal;FALSE
Filter;20 Hz
Test point;0,00;mm
Tolerance;2,00;mm
Enable sensor test by dig-input;FALSE
Zoom from;100,00;mm
Zoom to;120,00;mm























Channel-Y settings
Use the settings from global setup;True
Sensor-Y type;Strain Gage
Unit;kN
Used range from;0,0;kN
Used range to;20,0;kN
Decimal places;XXXXX.X
Scaling by;Teach-In
Point 1;0,0;kN;-0,01562;%
Point 2;20,0;kN;2,00000;%
Invert signal;FALSE
Filter;1 Hz
Piezo reset;-
Test point;0,0;kN
Tolerance;0,1;kN
Enable sensor test by dig-input;FALSE
Zoom from;0,0;kN
Zoom to;5,0;kN












Cycle control settings
Use the settings from global setup;True
Measuring function;Y (X)
Delta-X;Automatic
START condition;Dig-Input
STOP condition;Dig-Input
Cycle time out;20,00;s
Turning point RIGHT;YMAX
Turning point LEFT;NONE
Cut curve at;NONE










Evaluation settings
Capture only first NOK-EO for statistics;False
Hysteresis-X;0,0;%
Hysteresis-Y;100,0;%






Trigger Y settings
Threshold;1,8;kN
Value X at TRIGGER Y;0,00;mm
Approach from;BELOW






Block settings
Value X at block;XMAX
Block at;0,00;mm







Measuring curve
Number of measuring points;288
Ref. Graph on;ABSOLUTE
Curve segments;0;287;286;288;


Time;X(ABSOLUTE);Y;X (ABSOLUTE)


s;mm;kN;mm
0,0000;-0,04001;-0,03473;-0,04001
0,1074;0,36796;-0,03474;0,36796
0,1108;0,79723;-0,03474;0,79723
0,1131;1,20531;-0,03473;1,20531
0,1149;1,62457;-0,03473;1,62457
0,1166;2,06362;-0,03473;2,06362
0,1181;2,49999;-0,03473;2,49999
0,1194;2,91110;-0,03472;2,91110
0,1208;3,34153;-0,03471;3,34153
0,1221;3,78291;-0,03471;3,78291
0,1234;4,22777;-0,03470;4,22777
0,1247;4,67101;-0,03468;4,67101
0,1260;5,10866;-0,03468;5,10866
0,1273;5,53828;-0,03467;5,53828
0,1286;5,95754;-0,03465;5,95754
0,1300;6,36528;-0,03463;6,36528
0,1315;6,81724;-0,03463;6,81724
0,1330;7,25582;-0,03460;7,25582
0,1345;7,68370;-0,03459;7,68370
0,1360;8,10342;-0,03456;8,10342
0,1375;8,51686;-0,03452;8,51686
0,1390;8,92634;-0,03452;8,92634
0,1405;9,33396;-0,03449;9,33396
0,1420;9,74112;-0,03446;9,74112
0,1435;10,14920;-0,03441;10,14920
0,1450;10,55880;-0,03436;10,55880
0,1465;10,97050;-0,03436;10,97050
0,1480;11,38394;-0,03432;11,38394
0,1495;11,79889;-0,03426;11,79889
0,1510;12,21466;-0,03421;12,21466
0,1525;12,63042;-0,03415;12,63042
0,1540;13,04538;-0,03415;13,04538
0,1555;13,45847;-0,03408;13,45847
0,1570;13,86900;-0,03401;13,86900
0,1585;14,27592;-0,03394;14,27592
0,1600;14,67877;-0,03385;14,67877
0,1617;15,12666;-0,03385;15,12666
0,1634;15,56873;-0,03377;15,56873
0,1651;16,00487;-0,03369;16,00487
0,1668;16,43507;-0,03360;16,43507
0,1685;16,85945;-0,03349;16,85945
0,1701;17,27801;-0,03339;17,27801
0,1718;17,69076;-0,03328;17,69076
0,1735;18,09814;-0,03317;18,09814
0,1752;18,50041;-0,03305;18,50041
0,1771;18,94190;-0,03292;18,94190
0,1790;19,37827;-0,03279;19,37827
0,1808;19,81022;-0,03266;19,81022
0,1827;20,23809;-0,03251;20,23809
0,1846;20,66235;-0,03236;20,66235
0,1865;21,08348;-0,03222;21,08348
0,1884;21,50169;-0,03206;21,50169
0,1902;21,91780;-0,03189;21,91780
0,1921;22,33194;-0,03173;22,33194
0,1940;22,74445;-0,03155;22,74445
0,1959;23,15568;-0,03136;23,15568
0,1977;23,56586;-0,03118;23,56586
0,1996;23,97511;-0,03099;23,97511
0,2015;24,38366;-0,03078;24,38366
0,2034;24,79186;-0,03058;24,79186
0,2052;25,19995;-0,03037;25,19995
0,2071;25,60792;-0,03014;25,60792
0,2090;26,01600;-0,02992;26,01600
0,2109;26,42409;-0,02969;26,42409
0,2128;26,83241;-0,02945;26,83241
0,2146;27,24119;-0,02921;27,24119
0,2165;27,65021;-0,02896;27,65021
0,2184;28,05981;-0,02870;28,05981
0,2203;28,46987;-0,02844;28,46987
0,2221;28,88028;-0,02817;28,88028
0,2240;29,29093;-0,02789;29,29093
0,2259;29,70181;-0,02762;29,70181
0,2278;30,11280;-0,02733;30,11280
0,2297;30,52357;-0,02703;30,52357
0,2315;30,93433;-0,02674;30,93433
0,2334;31,34498;-0,02643;31,34498
0,2353;31,75574;-0,02612;31,75574
0,2372;32,16662;-0,02580;32,16662
0,2390;32,57761;-0,02548;32,57761
0,2409;32,98884;-0,02514;32,98884
0,2428;33,40030;-0,02480;33,40030
0,2447;33,81211;-0,02446;33,81211
0,2466;34,22416;-0,02411;34,22416
0,2484;34,63666;-0,02376;34,63666
0,2503;35,04941;-0,02339;35,04941
0,2522;35,46250;-0,02302;35,46250
0,2541;35,87594;-0,02265;35,87594
0,2559;36,28972;-0,02227;36,28972
0,2578;36,70421;-0,02189;36,70421
0,2597;37,11916;-0,02150;37,11916
0,2616;37,53493;-0,02110;37,53493
0,2634;37,95140;-0,02070;37,95140
0,2653;38,36833;-0,02029;38,36833
0,2672;38,78584;-0,01988;38,78584
0,2691;39,20394;-0,01945;39,20394
0,2710;39,62262;-0,01903;39,62262
0,2728;40,04199;-0,01860;40,04199
0,2747;40,46183;-0,01816;40,46183
0,2766;40,88203;-0,01772;40,88203
0,2785;41,30210;-0,01728;41,30210
0,2803;41,72194;-0,01682;41,72194
0,2822;42,14120;-0,01636;42,14120
0,2841;42,55976;-0,01591;42,55976
0,2860;42,97751;-0,01543;42,97751
0,2879;43,39432;-0,01496;43,39432
0,2897;43,80998;-0,01448;43,80998
0,2916;44,22411;-0,01400;44,22411
0,2935;44,63662;-0,01352;44,63662
0,2954;45,04715;-0,01303;45,04715
0,2972;45,45570;-0,01253;45,45570
0,2991;45,86228;-0,01203;45,86228
0,3010;46,26687;-0,01152;46,26687
0,3029;46,66937;-0,01101;46,66937
0,3047;47,06989;-0,01050;47,06989
0,3068;47,50800;-0,00998;47,50800
0,3089;47,94344;-0,00946;47,94344
0,3109;48,37620;-0,00894;48,37620
0,3130;48,80640;-0,00841;48,80640
0,3151;49,23393;-0,00787;49,23393
0,3171;49,65889;-0,00733;49,65889
0,3192;50,08141;-0,00680;50,08141
0,3213;50,50125;-0,00625;50,50125
0,3233;50,91865;-0,00516;50,91865
0,3254;51,33360;-0,00460;51,33360
0,3275;51,74611;-0,00405;51,74611
0,3295;52,15641;-0,00349;52,15641
0,3316;52,56461;-0,00293;52,56461
0,3337;52,97048;-0,00236;52,97048
0,3357;53,37414;-0,00180;53,37414
0,3378;53,77536;-0,00122;53,77536
0,3400;54,21069;-0,00065;54,21069
0,3423;54,64368;0,00050;54,64368
0,3446;55,07470;0,00108;55,07470
0,3468;55,50385;0,00165;55,50385
0,3491;55,93102;0,00224;55,93102
0,3513;56,35610;0,00283;56,35610
0,3536;56,77909;0,00401;56,77909
0,3558;57,20021;0,00459;57,20021
0,3581;57,61958;0,00518;57,61958
0,3603;58,03756;0,00577;58,03756
0,3626;58,45461;0,00637;58,45461
0,3648;58,87085;0,00756;58,87085
0,3671;59,28626;0,00815;59,28626
0,3693;59,70110;0,00875;59,70110
0,3716;60,11524;0,00936;60,11524
0,3738;60,52868;0,00996;60,52868
0,3761;60,94154;0,01115;60,94154
0,3783;61,35393;0,01175;61,35393
0,3806;61,76597;0,01236;61,76597
0,3828;62,17766;0,01296;62,17766
0,3851;62,58901;0,01356;62,58901
0,3874;62,99989;0,01477;62,99989
0,3896;63,41053;0,01537;63,41053
0,3919;63,82106;0,01597;63,82106
0,3941;64,23159;0,01658;64,23159
0,3964;64,64224;0,01718;64,64224
0,3986;65,05289;0,01838;65,05289
0,4009;65,46342;0,01898;65,46342
0,4031;65,87360;0,01959;65,87360
0,4054;66,28331;0,02019;66,28331
0,4076;66,69245;0,02079;66,69245
0,4099;67,10088;0,02198;67,10088
0,4121;67,50885;0,02258;67,50885
0,4144;67,91612;0,02318;67,91612
0,4166;68,32269;0,02378;68,32269
0,4189;68,72845;0,02437;68,72845
0,4211;69,13328;0,02556;69,13328
0,4234;69,53706;0,02615;69,53706
0,4257;69,93967;0,02674;69,93967
0,4279;70,34124;0,02732;70,34124
0,4302;70,74164;0,02792;70,74164
0,4326;71,17429;0,02908;71,17429
0,4350;71,60565;0,02967;71,60565
0,4375;72,03585;0,03025;72,03585
0,4399;72,46489;0,03141;72,46489
0,4424;72,89276;0,03199;72,89276
0,4448;73,31959;0,03256;73,31959
0,4472;73,74536;0,03371;73,74536
0,4497;74,17033;0,03428;74,17033
0,4521;74,59401;0,03484;74,59401
0,4546;75,01630;0,03541;75,01630
0,4570;75,43707;0,03653;75,43707
0,4594;75,85633;0,03709;75,85633
0,4619;76,27408;0,03765;76,27408
0,4643;76,69066;0,03876;76,69066
0,4668;77,10584;0,03931;77,10584
0,4692;77,51998;0,03986;77,51998
0,4717;77,93249;0,04094;77,93249
0,4741;78,34337;0,04149;78,34337
0,4765;78,75262;0,04202;78,75262
0,4790;79,16035;0,04256;79,16035
0,4814;79,56646;0,04363;79,56646
0,4839;79,97129;0,04415;79,97129
0,4863;80,37483;0,04468;80,37483
0,4887;80,77687;0,04572;80,77687
0,4912;81,17704;0,04624;81,17704
0,4938;81,60573;0,04675;81,60573
0,4964;82,03220;0,04778;82,03220
0,4991;82,45682;0,04828;82,45682
0,5017;82,87968;0,04929;82,87968
0,5043;83,30104;0,04979;83,30104
0,5069;83,72100;0,05029;83,72100
0,5096;84,13956;0,05127;84,13956
0,5122;84,55660;0,05176;84,55660
0,5148;84,97237;0,05272;84,97237
0,5175;85,38721;0,05321;85,38721
0,5201;85,80135;0,05368;85,80135
0,5227;86,21514;0,05462;86,21514
0,5253;86,62846;0,05509;86,62846
0,5280;87,04132;0,05602;87,04132
0,5306;87,45383;0,05647;87,45383
0,5332;87,86610;0,05694;87,86610
0,5359;88,27791;0,05783;88,27791
0,5385;88,68926;0,05829;88,68926
0,5411;89,09990;0,05917;89,09990
0,5437;89,50950;0,05961;89,50950
0,5464;89,91805;0,06005;89,91805
0,5490;90,32567;0,06091;90,32567
0,5516;90,73213;0,06133;90,73213
0,5543;91,13765;0,06219;91,13765
0,5569;91,54248;0,06260;91,54248
0,5595;91,94626;0,06302;91,94626
0,5621;92,34934;0,06384;92,34934
0,5648;92,75137;0,06425;92,75137
0,5674;93,15201;0,06505;93,15201
0,5702;93,57988;0,06546;93,57988
0,5730;94,00636;0,06625;94,00636
0,5758;94,43167;0,06664;94,43167
0,5787;94,85628;0,06742;94,85628
0,5815;95,28020;0,06780;95,28020
0,5843;95,70342;0,06855;95,70342
0,5871;96,12593;0,06893;96,12593
0,5899;96,54775;0,06967;96,54775
0,5927;96,96888;0,07004;96,96888
0,5956;97,38953;0,07077;97,38953
0,5984;97,80961;0,07113;97,80961
0,6012;98,22957;0,07183;98,22957
0,6040;98,64894;0,07218;98,64894
0,6068;99,06785;0,07289;99,06785
0,6096;99,48583;0,07323;99,48583
0,6125;99,90265;0,07390;99,90265
0,6153;100,31783;0,07425;100,31783
0,6181;100,73162;0,07491;100,73162
0,6209;101,14401;0,07524;101,14401
0,6237;101,55512;0,07589;101,55512
0,6265;101,96507;0,07622;101,96507
0,6294;102,37362;0,07685;102,37362
0,6322;102,78101;0,07717;102,78101
0,6350;103,18723;0,07779;103,18723
0,6378;103,59241;0,07810;103,59241
0,6406;103,99654;0,07871;103,99654
0,6434;104,40008;0,07901;104,40008
0,6462;104,80351;0,07962;104,80351
0,6491;105,20706;0,07991;105,20706
0,6519;105,61037;0,08050;105,61037
0,6547;106,01299;0,08078;106,01299
0,6575;106,41490;0,08136;106,41490
0,6603;106,81519;0,08164;106,81519
0,6633;107,23748;0,08220;107,23748
0,6663;107,65080;0,08248;107,65080
0,6693;108,05155;0,08303;108,05155
0,6725;108,45941;0,08357;108,45941
0,6759;108,86493;0,08384;108,86493
0,6797;109,27406;0,08437;109,27406
0,6840;109,67575;0,08517;109,67575
0,6898;110,08022;0,08595;110,08022
0,7125;110,48028;0,08909;110,48028
0,7566;110,88080;0,09618;110,88080
0,7645;111,28318;0,09815;111,28318
0,7705;111,69732;0,09943;111,69732
0,7756;112,10145;0,10033;112,10145
0,7807;112,51314;0,10177;112,51314
0,7871;112,91517;0,10383;112,91517
1,2602;113,31814;0,66668;113,31814
1,2671;113,73134;0,67302;113,73134
1,2714;114,14746;0,67924;114,14746
1,2754;114,56428;0,68332;114,56428
1,2793;114,97201;0,68737;114,97201
1,2840;115,38103;0,69137;115,38103
1,2923;115,78481;0,70122;115,78481
1,4779;116,01213;1,30690;116,01213
1,5418;116,03704;1,92014;116,03704
1,5906;116,04752;2,53205;116,04752
1,6338;116,06125;3,14618;116,06125
1,6751;116,07079;3,77066;116,07079
1,7145;116,07929;4,37892;116,07929
1,7351;116,08406;4,69632;116,08406
1,7355;116,08418;4,69632;116,08418
