Part protocol
Network name;Part_OP10_MP-001_2020-08-26_15-57-51_0032_OK.csv
Protocol version;2.01.00

Index;Result information;Process values - curve related;Process values - EO related;Evaluation objects settings;Switch signal settings;Device information;Channel-X settings;Channel-Y settings;Cycle control settings;Evaluation settings;Trigger Y settings;Block settings;Measuring curve;Measuring points;Sequence;
Line;10;30;40;70;100;120;150;190;220;240;250;260;270;280;600;



Result information
Date;2020/08/26
Time;15:57:51
Cycle number;32
Total result;OK
Triggered switch signals
Part serial number;0032
Measuring program name;D57-Left
Measuring program number;1
Zero X offset;0,00;mm
Tara Y offset;0,0;kN









Process values - curve related
Block X;126,61;mm;XMIN-X;-0,15;mm
Block Y;7,8;kN;XMIN-Y;0,0;kN
Ref X;-;mm;XMAX-X;126,61;mm
Peak-peak X;126,76;mm;XMAX-Y;7,8;kN
Peak-peak Y;7,9;kN;YMIN-X;0,26;mm
;;;YMIN-Y;0,0;kN
;;;YMAX-X;126,61;mm
;;;YMAX-Y;7,9;kN

Process values - EO related;Result;Entry;Exit;XMIN-X;XMIN-Y;XMAX-X;XMAX-Y;YMIN-Y;YMIN-X;YMAX-Y;YMAX-X
;;;;mm;kN;mm;kN;kN;mm;kN;mm
EO-01;OK;0,5;0,6;;;;;0,5;124,50;0,6;125,68;;;;;;
EO-02;OK;126,59;126,59;126,59;4,5;126,59;5,1;;;;;;;;;;
EO-03;None;
EO-04;None;
























Evaluation objects settings;Reaction;X reference;Y-Reference;XMin;XMax;YMin;YMax;Entry;Exit;Curve part;Catch zone X;Catch zone Y
EO-01;UNI-BOX;ABSOLUTE;-;124,50;125,70;0,5;3,0;LEFT;RIGHT;ANY;+50%;+50%
EO-02;UNI-BOX;ABSOLUTE;-;125,80;127,20;4,5;5,5;BELOW;ABOVE;ANY;+50%;+50%
EO-03;OFF
EO-04;OFF

























Switch signal settings;Channel;Threshold at;;Trigger from;Reference;Latch until
Type S1;OFF
Type S2;OFF

















Device information
Device type;maXYmos BL
Device type number;5867B1011
Device serial number;5182443
Firmware version;2.3.2 (r22473-BL_v2.3.x)
-
-
-
-
-
IP Address;10.0.0.18
Network name;OP10
Profibus address;10
-
-
-
Station name;OP10
Company name;
Comment;











Channel-X settings
Use the settings from global setup;True
Sensor-X type;Â±10V
Unit;mm
Used range from;0,00;mm
Used range to;200,00;mm
Decimal places;XXXX.XX
Scaling by;Teach-In
Point 1;0,00;mm;-0,350;%
Point 2;200,00;mm;10,000;%
Invert signal;FALSE
Filter;20 Hz
Test point;0,00;mm
Tolerance;2,00;mm
Enable sensor test by dig-input;FALSE
Zoom from;110,00;mm
Zoom to;133,11;mm























Channel-Y settings
Use the settings from global setup;True
Sensor-Y type;Strain Gage
Unit;kN
Used range from;0,0;kN
Used range to;20,0;kN
Decimal places;XXXXX.X
Scaling by;Teach-In
Point 1;0,0;kN;-0,01562;%
Point 2;20,0;kN;2,00000;%
Invert signal;FALSE
Filter;1 Hz
Piezo reset;-
Test point;0,0;kN
Tolerance;0,1;kN
Enable sensor test by dig-input;FALSE
Zoom from;0,0;kN
Zoom to;6,0;kN












Cycle control settings
Use the settings from global setup;True
Measuring function;Y (X)
Delta-X;Automatic
START condition;Dig-Input
STOP condition;Dig-Input
Cycle time out;20,00;s
Turning point RIGHT;YMAX
Turning point LEFT;NONE
Cut curve at;NONE










Evaluation settings
Capture only first NOK-EO for statistics;False
Hysteresis-X;0,0;%
Hysteresis-Y;100,0;%






Trigger Y settings
Threshold;1,9;kN
Value X at TRIGGER Y;0,00;mm
Approach from;BELOW






Block settings
Value X at block;XMAX
Block at;0,00;mm







Measuring curve
Number of measuring points;317
Ref. Graph on;ABSOLUTE
Curve segments;0;317;316;317;


Time;X(ABSOLUTE);Y;X (ABSOLUTE)


s;mm;kN;mm
0,0000;-0,15222;-0,03427;-0,15222
0,0941;0,26285;-0,03428;0,26285
0,0980;0,68060;-0,03427;0,68060
0,1009;1,09788;-0,03427;1,09788
0,1031;1,50608;-0,03427;1,50608
0,1052;1,93872;-0,03427;1,93872
0,1071;2,38091;-0,03427;2,38091
0,1087;2,81845;-0,03426;2,81845
0,1103;3,23841;-0,03426;3,23841
0,1118;3,68723;-0,03426;3,68723
0,1131;4,10323;-0,03426;4,10323
0,1144;4,54123;-0,03425;4,54123
0,1157;5,00030;-0,03425;5,00030
0,1168;5,40838;-0,03425;5,40838
0,1179;5,82624;-0,03424;5,82624
0,1191;6,24923;-0,03424;6,24923
0,1202;6,67175;-0,03424;6,67175
0,1213;7,08856;-0,03423;7,08856
0,1225;7,49560;-0,03423;7,49560
0,1238;7,95478;-0,03423;7,95478
0,1251;8,39511;-0,03422;8,39511
0,1264;8,81635;-0,03422;8,81635
0,1277;9,21955;-0,03421;9,21955
0,1292;9,65987;-0,03419;9,65987
0,1307;10,08030;-0,03418;10,08030
0,1322;10,48349;-0,03418;10,48349
0,1339;10,92010;-0,03417;10,92010
0,1356;11,34413;-0,03415;11,34413
0,1373;11,76094;-0,03413;11,76094
0,1390;12,17485;-0,03411;12,17485
0,1407;12,58817;-0,03410;12,58817
0,1424;13,00231;-0,03407;13,00231
0,1440;13,41878;-0,03405;13,41878
0,1457;13,83850;-0,03402;13,83850
0,1474;14,26230;-0,03399;14,26230
0,1491;14,69029;-0,03399;14,69029
0,1508;15,12177;-0,03397;15,12177
0,1525;15,55628;-0,03393;15,55628
0,1542;15,99335;-0,03390;15,99335
0,1559;16,43321;-0,03386;16,43321
0,1576;16,87540;-0,03383;16,87540
0,1593;17,31945;-0,03378;17,31945
0,1609;17,76455;-0,03374;17,76455
0,1626;18,21081;-0,03370;18,21081
0,1643;18,65813;-0,03365;18,65813
0,1660;19,10672;-0,03365;19,10672
0,1677;19,55636;-0,03360;19,55636
0,1692;19,95664;-0,03355;19,95664
0,1707;20,35716;-0,03349;20,35716
0,1722;20,75826;-0,03344;20,75826
0,1737;21,16030;-0,03338;21,16030
0,1752;21,56326;-0,03338;21,56326
0,1767;21,96727;-0,03332;21,96727
0,1782;22,37187;-0,03325;22,37187
0,1797;22,77669;-0,03319;22,77669
0,1812;23,18152;-0,03312;23,18152
0,1827;23,58646;-0,03312;23,58646
0,1842;23,99164;-0,03305;23,99164
0,1857;24,39705;-0,03298;24,39705
0,1872;24,80269;-0,03290;24,80269
0,1887;25,20810;-0,03283;25,20810
0,1902;25,61269;-0,03283;25,61269
0,1917;26,01670;-0,03274;26,01670
0,1932;26,42013;-0,03266;26,42013
0,1947;26,82333;-0,03258;26,82333
0,1962;27,22641;-0,03248;27,22641
0,1977;27,62891;-0,03248;27,62891
0,1992;28,03059;-0,03240;28,03059
0,2007;28,43111;-0,03231;28,43111
0,2024;28,88017;-0,03222;28,88017
0,2041;29,32759;-0,03211;29,32759
0,2058;29,77363;-0,03201;29,77363
0,2075;30,21803;-0,03191;30,21803
0,2092;30,66033;-0,03191;30,66033
0,2109;31,10031;-0,03181;31,10031
0,2126;31,53773;-0,03171;31,53773
0,2143;31,97305;-0,03160;31,97305
0,2159;32,40616;-0,03149;32,40616
0,2176;32,83741;-0,03137;32,83741
0,2193;33,26656;-0,03126;33,26656
0,2210;33,69374;-0,03114;33,69374
0,2227;34,11882;-0,03103;34,11882
0,2244;34,54168;-0,03091;34,54168
0,2261;34,96234;-0,03091;34,96234
0,2278;35,38113;-0,03079;35,38113
0,2295;35,79795;-0,03066;35,79795
0,2312;36,21290;-0,03054;36,21290
0,2328;36,62576;-0,03041;36,62576
0,2345;37,03652;-0,03028;37,03652
0,2362;37,44484;-0,03015;37,44484
0,2379;37,85072;-0,03002;37,85072
0,2396;38,25426;-0,02988;38,25426
0,2413;38,65536;-0,02975;38,65536
0,2432;39,09848;-0,02962;39,09848
0,2450;39,53904;-0,02948;39,53904
0,2469;39,97728;-0,02934;39,97728
0,2488;40,41365;-0,02919;40,41365
0,2507;40,84827;-0,02905;40,84827
0,2526;41,28138;-0,02891;41,28138
0,2544;41,71298;-0,02876;41,71298
0,2563;42,14283;-0,02862;42,14283
0,2582;42,57082;-0,02847;42,57082
0,2601;42,99683;-0,02832;42,99683
0,2619;43,42109;-0,02817;43,42109
0,2638;43,84361;-0,02802;43,84361
0,2657;44,26439;-0,02787;44,26439
0,2676;44,68353;-0,02772;44,68353
0,2695;45,10116;-0,02756;45,10116
0,2713;45,51763;-0,02741;45,51763
0,2732;45,93281;-0,02725;45,93281
0,2751;46,34695;-0,02710;46,34695
0,2770;46,75981;-0,02694;46,75981
0,2788;47,17127;-0,02678;47,17127
0,2807;47,58122;-0,02663;47,58122
0,2826;47,98965;-0,02647;47,98965
0,2845;48,39669;-0,02630;48,39669
0,2864;48,80256;-0,02614;48,80256
0,2882;49,20716;-0,02598;49,20716
0,2901;49,61070;-0,02582;49,61070
0,2920;50,01332;-0,02565;50,01332
0,2939;50,41488;-0,02550;50,41488
0,2957;50,81540;-0,02533;50,81540
0,2978;51,25468;-0,02516;51,25468
0,2999;51,69292;-0,02501;51,69292
0,3019;52,13010;-0,02484;52,13010
0,3040;52,56601;-0,02467;52,56601
0,3061;53,00098;-0,02451;53,00098
0,3081;53,43467;-0,02434;53,43467
0,3102;53,86732;-0,02417;53,86732
0,3123;54,29880;-0,02401;54,29880
0,3143;54,72923;-0,02384;54,72923
0,3164;55,15838;-0,02351;55,15838
0,3185;55,58649;-0,02334;55,58649
0,3205;56,01355;-0,02317;56,01355
0,3226;56,43933;-0,02301;56,43933
0,3247;56,86382;-0,02283;56,86382
0,3267;57,28692;-0,02266;57,28692
0,3288;57,70886;-0,02250;57,70886
0,3308;58,12975;-0,02233;58,12975
0,3329;58,54959;-0,02215;58,54959
0,3350;58,96839;-0,02199;58,96839
0,3370;59,38613;-0,02165;59,38613
0,3391;59,80248;-0,02148;59,80248
0,3412;60,21743;-0,02131;60,21743
0,3432;60,63064;-0,02115;60,63064
0,3453;61,04222;-0,02098;61,04222
0,3474;61,45240;-0,02080;61,45240
0,3494;61,86118;-0,02064;61,86118
0,3515;62,26857;-0,02047;62,26857
0,3536;62,67479;-0,02029;62,67479
0,3556;63,07974;-0,02013;63,07974
0,3577;63,48340;-0,01979;63,48340
0,3598;63,88578;-0,01963;63,88578
0,3618;64,28700;-0,01945;64,28700
0,3641;64,72325;-0,01928;64,72325
0,3663;65,15776;-0,01912;65,15776
0,3686;65,59075;-0,01895;65,59075
0,3708;66,02200;-0,01862;66,02200
0,3731;66,45185;-0,01844;66,45185
0,3753;66,88043;-0,01828;66,88043
0,3776;67,30783;-0,01811;67,30783
0,3798;67,73443;-0,01794;67,73443
0,3821;68,16032;-0,01761;68,16032
0,3844;68,58540;-0,01744;68,58540
0,3866;69,00943;-0,01728;69,00943
0,3889;69,43230;-0,01711;69,43230
0,3911;69,85412;-0,01694;69,85412
0,3934;70,27512;-0,01661;70,27512
0,3956;70,69520;-0,01645;70,69520
0,3979;71,11457;-0,01629;71,11457
0,4001;71,53302;-0,01612;71,53302
0,4024;71,95030;-0,01595;71,95030
0,4046;72,36618;-0,01563;72,36618
0,4069;72,78056;-0,01546;72,78056
0,4091;73,19341;-0,01529;73,19341
0,4114;73,60499;-0,01513;73,60499
0,4136;74,01540;-0,01497;74,01540
0,4159;74,42489;-0,01465;74,42489
0,4181;74,83355;-0,01448;74,83355
0,4204;75,24152;-0,01431;75,24152
0,4227;75,64868;-0,01416;75,64868
0,4249;76,05490;-0,01399;76,05490
0,4272;76,46019;-0,01367;76,46019
0,4294;76,86432;-0,01351;76,86432
0,4317;77,26728;-0,01335;77,26728
0,4339;77,66920;-0,01318;77,66920
0,4362;78,06995;-0,01303;78,06995
0,4386;78,50272;-0,01270;78,50272
0,4410;78,93431;-0,01255;78,93431
0,4435;79,36451;-0,01239;79,36451
0,4459;79,79355;-0,01206;79,79355
0,4484;80,22131;-0,01191;80,22131
0,4508;80,64778;-0,01175;80,64778
0,4533;81,07286;-0,01159;81,07286
0,4557;81,49655;-0,01127;81,49655
0,4581;81,91895;-0,01111;81,91895
0,4606;82,34007;-0,01095;82,34007
0,4630;82,75991;-0,01064;82,75991
0,4655;83,17859;-0,01048;83,17859
0,4679;83,59564;-0,01032;83,59564
0,4703;84,01129;-0,01001;84,01129
0,4728;84,42543;-0,00985;84,42543
0,4752;84,83863;-0,00969;84,83863
0,4777;85,25103;-0,00954;85,25103
0,4801;85,66295;-0,00923;85,66295
0,4825;86,07441;-0,00907;86,07441
0,4850;86,48541;-0,00892;86,48541
0,4874;86,89547;-0,00860;86,89547
0,4899;87,30437;-0,00844;87,30437
0,4923;87,71199;-0,00830;87,71199
0,4947;88,11810;-0,00798;88,11810
0,4972;88,52269;-0,00782;88,52269
0,4996;88,92566;-0,00767;88,92566
0,5021;89,32688;-0,00752;89,32688
0,5047;89,75696;-0,00720;89,75696
0,5073;90,18472;-0,00706;90,18472
0,5100;90,61038;-0,00674;90,61038
0,5126;91,03453;-0,00659;91,03453
0,5152;91,45739;-0,00644;91,45739
0,5178;91,87898;-0,00613;91,87898
0,5205;92,29964;-0,00597;92,29964
0,5231;92,71913;-0,00567;92,71913
0,5257;93,13758;-0,00551;93,13758
0,5283;93,55486;-0,00536;93,55486
0,5310;93,97086;-0,00506;93,97086
0,5336;94,38569;-0,00490;94,38569
0,5362;94,79925;-0,00459;94,79925
0,5389;95,21164;-0,00445;95,21164
0,5415;95,62287;-0,00429;95,62287
0,5441;96,03282;-0,00398;96,03282
0,5467;96,44160;-0,00383;96,44160
0,5494;96,84934;-0,00353;96,84934
0,5520;97,25614;-0,00338;97,25614
0,5546;97,66225;-0,00322;97,66225
0,5573;98,06824;-0,00292;98,06824
0,5599;98,47400;-0,00277;98,47400
0,5625;98,87952;-0,00246;98,87952
0,5651;99,28423;-0,00232;99,28423
0,5678;99,68813;-0,00217;99,68813
0,5704;100,09109;-0,00186;100,09109
0,5730;100,49347;-0,00171;100,49347
0,5757;100,89551;-0,00141;100,89551
0,5783;101,29684;-0,00125;101,29684
0,5809;101,69771;-0,00110;101,69771
0,5835;102,09776;-0,00080;102,09776
0,5864;102,52552;-0,00065;102,52552
0,5892;102,95235;-0,00035;102,95235
0,5920;103,37743;-0,00020;103,37743
0,5948;103,79913;0,00010;103,79913
0,5976;104,21548;0,00026;104,21548
0,6004;104,62485;0,00055;104,62485
0,6033;105,02816;0,00070;105,02816
0,6063;105,45370;0,00101;105,45370
0,6093;105,87657;0,00130;105,87657
0,6123;106,29828;0,00146;106,29828
0,6153;106,71916;0,00176;106,71916
0,6183;107,14017;0,00191;107,14017
0,6213;107,56187;0,00221;107,56187
0,6243;107,98416;0,00252;107,98416
0,6273;108,40621;0,00266;108,40621
0,6303;108,82792;0,00297;108,82792
0,6333;109,24939;0,00313;109,24939
0,6363;109,67144;0,00343;109,67144
0,6393;110,09454;0,00374;110,09454
0,6423;110,51962;0,00389;110,51962
0,6451;110,92002;0,00419;110,92002
0,6479;111,32217;0,00435;111,32217
0,6508;111,72607;0,00465;111,72607
0,6536;112,13159;0,00481;112,13159
0,6564;112,53886;0,00513;112,53886
0,6592;112,94753;0,00528;112,94753
0,6620;113,35585;0,00560;113,35585
0,6648;113,76068;0,00576;113,76068
0,6678;114,18564;0,00607;114,18564
0,6708;114,60071;0,00623;114,60071
0,6738;115,00332;0,00654;115,00332
0,6770;115,41641;0,00687;115,41641
0,6804;115,83800;0,00703;115,83800
0,6838;116,24609;0,00736;116,24609
0,6874;116,66721;0,00768;116,66721
0,6909;117,08414;0,00801;117,08414
0,6945;117,50224;0,00835;117,50224
0,6981;117,92045;0,00868;117,92045
0,7018;118,33622;0,00902;118,33622
0,7063;118,74267;0,00937;118,74267
0,7152;119,14354;0,01026;119,14354
0,8625;119,54767;0,05614;119,54767
0,8700;119,95936;0,06141;119,95936
0,8755;120,36209;0,06559;120,36209
0,8806;120,76867;0,06999;120,76867
0,8858;121,17163;0,07458;121,17163
0,8924;121,57925;0,07937;121,57925
1,1150;121,97930;0,39047;121,97930
1,1961;122,38308;0,51925;122,38308
1,2010;122,78768;0,52773;122,78768
1,2046;123,21148;0,53332;123,21148
1,2074;123,62620;0,53611;123,62620
1,2098;124,03894;0,53888;124,03894
1,2121;124,44586;0,54439;124,44586
1,2144;124,85104;0,54713;124,85104
1,2168;125,25866;0,54985;125,25866
1,2198;125,67989;0,55526;125,67989
1,2241;126,09322;0,56063;126,09322
1,4062;126,49339;0,78622;126,49339
1,5161;126,55042;1,39278;126,55042
1,5649;126,56206;2,01222;126,56206
1,6024;126,57067;2,62749;126,57067
1,6362;126,57580;3,25654;126,57580
1,6681;126,58173;3,89073;126,58173
1,6982;126,58860;4,50237;126,58860
1,7282;126,59128;5,11097;126,59128
1,7601;126,59640;5,73856;126,59640
1,7939;126,60210;6,36794;126,60210
1,8296;126,60594;6,98241;126,60594
1,8690;126,60943;7,59508;126,60943
1,8816;126,61176;7,75700;126,61176
1,8878;126,61176;7,86173;126,61176
