Part protocol
Network name;Part_OP10_MP-002_2020-08-26_10-26-08_0015_OK.csv
Protocol version;2.01.00

Index;Result information;Process values - curve related;Process values - EO related;Evaluation objects settings;Switch signal settings;Device information;Channel-X settings;Channel-Y settings;Cycle control settings;Evaluation settings;Trigger Y settings;Block settings;Measuring curve;Measuring points;Sequence;
Line;10;30;40;70;100;120;150;190;220;240;250;260;270;280;570;



Result information
Date;2020/08/26
Time;10:26:08
Cycle number;15
Total result;OK
Triggered switch signals
Part serial number;0015
Measuring program name;D57-Right
Measuring program number;2
Zero X offset;0,00;mm
Tara Y offset;0,0;kN









Process values - curve related
Block X;116,12;mm;XMIN-X;0,02;mm
Block Y;4,9;kN;XMIN-Y;0,0;kN
Ref X;-;mm;XMAX-X;116,12;mm
Peak-peak X;116,09;mm;XMAX-Y;4,9;kN
Peak-peak Y;5,0;kN;YMIN-X;0,43;mm
;;;YMIN-Y;0,0;kN
;;;YMAX-X;116,12;mm
;;;YMAX-Y;4,9;kN

Process values - EO related;Result;Entry;Exit;XMIN-X;XMIN-Y;XMAX-X;XMAX-Y;YMIN-Y;YMIN-X;YMAX-Y;YMAX-X
;;;;mm;kN;mm;kN;kN;mm;kN;mm
EO-01;OK;0,7;0,7;;;;;0,7;115,00;0,7;115,20;;;;;;
EO-02;OK;;116,09;116,07;2,3;116,08;2,8;2,3;116,07;;;;;;;;
EO-03;None;
EO-04;None;
























Evaluation objects settings;Reaction;X reference;Y-Reference;XMin;XMax;YMin;YMax;Entry;Exit;Curve part;Catch zone X;Catch zone Y
EO-01;UNI-BOX;ABSOLUTE;-;115,00;115,50;0,4;2,0;LEFT;RIGHT;ANY;+50%;+50%
EO-02;UNI-BOX;ABSOLUTE;-;115,40;117,10;2,3;3,3;ANY;ABOVE;ANY;+50%;+50%
EO-03;OFF
EO-04;OFF

























Switch signal settings;Channel;Threshold at;;Trigger from;Reference;Latch until
Type S1;OFF
Type S2;OFF

















Device information
Device type;maXYmos BL
Device type number;5867B1011
Device serial number;5182443
Firmware version;2.3.2 (r22473-BL_v2.3.x)
-
-
-
-
-
IP Address;10.0.0.18
Network name;OP10
Profibus address;10
-
-
-
Station name;OP10
Company name;
Comment;











Channel-X settings
Use the settings from global setup;True
Sensor-X type;Â±10V
Unit;mm
Used range from;0,00;mm
Used range to;200,00;mm
Decimal places;XXXX.XX
Scaling by;Teach-In
Point 1;0,00;mm;-0,350;%
Point 2;200,00;mm;10,000;%
Invert signal;FALSE
Filter;20 Hz
Test point;0,00;mm
Tolerance;2,00;mm
Enable sensor test by dig-input;FALSE
Zoom from;100,00;mm
Zoom to;120,00;mm























Channel-Y settings
Use the settings from global setup;True
Sensor-Y type;Strain Gage
Unit;kN
Used range from;0,0;kN
Used range to;20,0;kN
Decimal places;XXXXX.X
Scaling by;Teach-In
Point 1;0,0;kN;-0,01562;%
Point 2;20,0;kN;2,00000;%
Invert signal;FALSE
Filter;1 Hz
Piezo reset;-
Test point;0,0;kN
Tolerance;0,1;kN
Enable sensor test by dig-input;FALSE
Zoom from;0,0;kN
Zoom to;5,0;kN












Cycle control settings
Use the settings from global setup;True
Measuring function;Y (X)
Delta-X;Automatic
START condition;Dig-Input
STOP condition;Dig-Input
Cycle time out;20,00;s
Turning point RIGHT;YMAX
Turning point LEFT;NONE
Cut curve at;NONE










Evaluation settings
Capture only first NOK-EO for statistics;False
Hysteresis-X;0,0;%
Hysteresis-Y;100,0;%






Trigger Y settings
Threshold;1,8;kN
Value X at TRIGGER Y;0,00;mm
Approach from;BELOW






Block settings
Value X at block;XMAX
Block at;0,00;mm







Measuring curve
Number of measuring points;288
Ref. Graph on;ABSOLUTE
Curve segments;0;287;286;288;


Time;X(ABSOLUTE);Y;X (ABSOLUTE)


s;mm;kN;mm
0,0000;0,02168;-0,03618;0,02168
0,1018;0,43034;-0,03620;0,43034
0,1052;0,84704;-0,03619;0,84704
0,1077;1,27876;-0,03619;1,27876
0,1095;1,69092;-0,03618;1,69092
0,1112;2,12123;-0,03618;2,12123
0,1127;2,54783;-0,03618;2,54783
0,1141;2,94928;-0,03617;2,94928
0,1154;3,36970;-0,03616;3,36970
0,1167;3,80072;-0,03616;3,80072
0,1180;4,23534;-0,03615;4,23534
0,1193;4,66798;-0,03614;4,66798
0,1206;5,09504;-0,03612;5,09504
0,1219;5,51395;-0,03612;5,51395
0,1233;5,92274;-0,03611;5,92274
0,1248;6,37622;-0,03610;6,37622
0,1263;6,81480;-0,03608;6,81480
0,1278;7,23999;-0,03608;7,23999
0,1293;7,65413;-0,03605;7,65413
0,1308;8,05954;-0,03603;8,05954
0,1325;8,50790;-0,03600;8,50790
0,1341;8,95079;-0,03597;8,95079
0,1358;9,39100;-0,03593;9,39100
0,1375;9,83063;-0,03589;9,83063
0,1392;10,27177;-0,03589;10,27177
0,1409;10,71536;-0,03585;10,71536
0,1426;11,16174;-0,03581;11,16174
0,1443;11,61079;-0,03576;11,61079
0,1458;12,01155;-0,03571;12,01155
0,1473;12,41311;-0,03565;12,41311
0,1488;12,81503;-0,03559;12,81503
0,1503;13,21625;-0,03559;13,21625
0,1520;13,66600;-0,03552;13,66600
0,1537;14,11320;-0,03545;14,11320
0,1554;14,55667;-0,03537;14,55667
0,1570;14,99583;-0,03530;14,99583
0,1587;15,42999;-0,03522;15,42999
0,1604;15,85903;-0,03512;15,85903
0,1621;16,28236;-0,03503;16,28236
0,1638;16,69999;-0,03493;16,69999
0,1655;17,11168;-0,03493;17,11168
0,1672;17,51767;-0,03483;17,51767
0,1689;17,91796;-0,03472;17,91796
0,1708;18,35654;-0,03460;18,35654
0,1726;18,78954;-0,03448;18,78954
0,1745;19,21741;-0,03436;19,21741
0,1764;19,64074;-0,03423;19,64074
0,1783;20,05977;-0,03410;20,05977
0,1801;20,47496;-0,03395;20,47496
0,1820;20,88677;-0,03380;20,88677
0,1839;21,29555;-0,03365;21,29555
0,1858;21,70201;-0,03349;21,70201
0,1876;22,10648;-0,03333;22,10648
0,1895;22,50933;-0,03316;22,50933
0,1914;22,91101;-0,03298;22,91101
0,1933;23,31188;-0,03280;23,31188
0,1952;23,71205;-0,03261;23,71205
0,1972;24,15180;-0,03241;24,15180
0,1993;24,59178;-0,03222;24,59178
0,2012;24,99195;-0,03200;24,99195
0,2030;25,39258;-0,03179;25,39258
0,2049;25,79392;-0,03158;25,79392
0,2068;26,19595;-0,03135;26,19595
0,2087;26,59880;-0,03111;26,59880
0,2106;27,00258;-0,03087;27,00258
0,2124;27,40740;-0,03063;27,40740
0,2143;27,81351;-0,03038;27,81351
0,2162;28,22078;-0,03012;28,22078
0,2181;28,62933;-0,02987;28,62933
0,2199;29,03882;-0,02959;29,03882
0,2218;29,44923;-0,02932;29,44923
0,2237;29,86057;-0,02903;29,86057
0,2256;30,27273;-0,02875;30,27273
0,2274;30,68582;-0,02845;30,68582
0,2293;31,09985;-0,02814;31,09985
0,2312;31,51468;-0,02784;31,51468
0,2331;31,93033;-0,02752;31,93033
0,2350;32,34680;-0,02720;32,34680
0,2368;32,76385;-0,02688;32,76385
0,2387;33,18148;-0,02654;33,18148
0,2406;33,59969;-0,02620;33,59969
0,2425;34,01848;-0,02586;34,01848
0,2443;34,43798;-0,02551;34,43798
0,2462;34,85793;-0,02514;34,85793
0,2481;35,27847;-0,02478;35,27847
0,2500;35,69913;-0,02441;35,69913
0,2519;36,12002;-0,02403;36,12002
0,2537;36,54091;-0,02365;36,54091
0,2556;36,96180;-0,02327;36,96180
0,2575;37,38245;-0,02287;37,38245
0,2594;37,80288;-0,02247;37,80288
0,2612;38,22260;-0,02206;38,22260
0,2631;38,64140;-0,02165;38,64140
0,2650;39,05938;-0,02123;39,05938
0,2669;39,47607;-0,02080;39,47607
0,2688;39,89149;-0,02038;39,89149
0,2706;40,30586;-0,01994;40,30586
0,2725;40,71884;-0,01950;40,71884
0,2744;41,13042;-0,01905;41,13042
0,2763;41,54036;-0,01861;41,54036
0,2781;41,94868;-0,01815;41,94868
0,2800;42,35514;-0,01768;42,35514
0,2819;42,75996;-0,01722;42,75996
0,2838;43,16281;-0,01675;43,16281
0,2856;43,56380;-0,01628;43,56380
0,2877;44,00226;-0,01530;44,00226
0,2898;44,43805;-0,01481;44,43805
0,2918;44,87116;-0,01432;44,87116
0,2939;45,30136;-0,01382;45,30136
0,2960;45,72900;-0,01331;45,72900
0,2980;46,15408;-0,01280;46,15408
0,3001;46,57660;-0,01230;46,57660
0,3022;46,99667;-0,01178;46,99667
0,3042;47,41407;-0,01126;47,41407
0,3063;47,82879;-0,01073;47,82879
0,3084;48,24072;-0,00968;48,24072
0,3104;48,65020;-0,00914;48,65020
0,3125;49,05712;-0,00860;49,05712
0,3146;49,46183;-0,00806;49,46183
0,3166;49,86421;-0,00751;49,86421
0,3187;50,26450;-0,00696;50,26450
0,3209;50,69866;-0,00641;50,69866
0,3232;51,13049;-0,00585;51,13049
0,3254;51,56022;-0,00473;51,56022
0,3277;51,98810;-0,00417;51,98810
0,3300;52,41434;-0,00360;52,41434
0,3322;52,83930;-0,00304;52,83930
0,3345;53,26310;-0,00246;53,26310
0,3367;53,68609;-0,00132;53,68609
0,3390;54,10837;-0,00073;54,10837
0,3412;54,53019;-0,00015;54,53019
0,3435;54,95132;0,00043;54,95132
0,3457;55,37186;0,00102;55,37186
0,3480;55,79170;0,00219;55,79170
0,3502;56,21107;0,00277;56,21107
0,3525;56,63033;0,00337;56,63033
0,3547;57,04936;0,00396;57,04936
0,3570;57,46839;0,00456;57,46839
0,3592;57,88741;0,00575;57,88741
0,3615;58,30656;0,00635;58,30656
0,3637;58,72558;0,00695;58,72558
0,3660;59,14461;0,00754;59,14461
0,3683;59,56364;0,00814;59,56364
0,3705;59,98243;0,00935;59,98243
0,3728;60,40111;0,00996;60,40111
0,3750;60,81944;0,01056;60,81944
0,3773;61,23742;0,01116;61,23742
0,3795;61,65481;0,01176;61,65481
0,3818;62,07174;0,01298;62,07174
0,3840;62,48786;0,01358;62,48786
0,3863;62,90293;0,01419;62,90293
0,3885;63,31684;0,01479;63,31684
0,3908;63,72969;0,01540;63,72969
0,3930;64,14139;0,01660;64,14139
0,3953;64,55203;0,01722;64,55203
0,3975;64,96152;0,01782;64,96152
0,3998;65,36983;0,01842;65,36983
0,4020;65,77687;0,01902;65,77687
0,4043;66,18251;0,02023;66,18251
0,4066;66,58664;0,02083;66,58664
0,4088;66,98926;0,02143;66,98926
0,4111;67,39047;0,02203;67,39047
0,4135;67,82359;0,02323;67,82359
0,4159;68,25542;0,02382;68,25542
0,4184;68,68620;0,02442;68,68620
0,4208;69,11582;0,02502;69,11582
0,4233;69,54427;0,02620;69,54427
0,4257;69,97133;0,02680;69,97133
0,4281;70,39711;0,02738;70,39711
0,4306;70,82149;0,02856;70,82149
0,4330;71,24471;0,02914;71,24471
0,4355;71,66664;0,02972;71,66664
0,4379;72,08718;0,03089;72,08718
0,4403;72,50609;0,03146;72,50609
0,4428;72,92314;0,03204;72,92314
0,4452;73,33856;0,03262;73,33856
0,4477;73,75246;0,03376;73,75246
0,4501;74,16521;0,03432;74,16521
0,4525;74,57667;0,03490;74,57667
0,4550;74,98650;0,03602;74,98650
0,4574;75,39482;0,03658;75,39482
0,4599;75,80186;0,03714;75,80186
0,4623;76,20796;0,03825;76,20796
0,4648;76,61349;0,03879;76,61349
0,4672;77,01855;0,03935;77,01855
0,4696;77,42302;0,03989;77,42302
0,4721;77,82680;0,04098;77,82680
0,4745;78,22977;0,04151;78,22977
0,4770;78,63180;0,04205;78,63180
0,4794;79,03278;0,04312;79,03278
0,4820;79,46299;0,04364;79,46299
0,4847;79,89156;0,04417;79,89156
0,4873;80,31885;0,04522;80,31885
0,4899;80,74474;0,04574;80,74474
0,4925;81,16970;0,04676;81,16970
0,4952;81,59339;0,04727;81,59339
0,4978;82,01591;0,04778;82,01591
0,5004;82,43714;0,04878;82,43714
0,5031;82,85699;0,04928;82,85699
0,5057;83,27566;0,05027;83,27566
0,5083;83,69306;0,05076;83,69306
0,5109;84,10929;0,05125;84,10929
0,5136;84,52448;0,05222;84,52448
0,5162;84,93897;0,05270;84,93897
0,5188;85,35299;0,05364;85,35299
0,5214;85,76678;0,05411;85,76678
0,5241;86,18057;0,05459;86,18057
0,5267;86,59401;0,05551;86,59401
0,5293;87,00675;0,05596;87,00675
0,5320;87,41844;0,05687;87,41844
0,5346;87,82897;0,05733;87,82897
0,5372;88,23845;0,05777;88,23845
0,5398;88,64712;0,05866;88,64712
0,5425;89,05497;0,05910;89,05497
0,5451;89,46201;0,05996;89,46201
0,5477;89,86800;0,06040;89,86800
0,5504;90,27295;0,06082;90,27295
0,5530;90,67684;0,06167;90,67684
0,5556;91,07969;0,06209;91,07969
0,5582;91,48126;0,06292;91,48126
0,5609;91,88154;0,06333;91,88154
0,5637;92,30942;0,06414;92,30942
0,5665;92,73636;0,06455;92,73636
0,5693;93,16237;0,06534;93,16237
0,5721;93,58710;0,06573;93,58710
0,5750;94,01043;0,06651;94,01043
0,5778;94,43214;0,06690;94,43214
0,5806;94,85221;0,06766;94,85221
0,5834;95,27065;0,06804;95,27065
0,5862;95,68735;0,06879;95,68735
0,5890;96,10254;0,06915;96,10254
0,5919;96,51598;0,06988;96,51598
0,5947;96,92814;0,07024;96,92814
0,5975;97,33937;0,07096;97,33937
0,6003;97,75001;0,07131;97,75001
0,6031;98,16031;0,07201;98,16031
0,6059;98,57002;0,07236;98,57002
0,6087;98,97892;0,07304;98,97892
0,6116;99,38666;0,07338;99,38666
0,6144;99,79300;0,07404;99,79300
0,6172;100,19818;0,07438;100,19818
0,6200;100,60219;0,07503;100,60219
0,6228;101,00573;0,07536;101,00573
0,6256;101,40916;0,07600;101,40916
0,6285;101,81248;0,07632;101,81248
0,6313;102,21544;0,07694;102,21544
0,6341;102,61794;0,07726;102,61794
0,6369;103,02021;0,07787;103,02021
0,6397;103,42247;0,07817;103,42247
0,6425;103,82532;0,07877;103,82532
0,6454;104,22875;0,07907;104,22875
0,6482;104,63276;0,07965;104,63276
0,6510;105,03689;0,07995;105,03689
0,6538;105,44078;0,08052;105,44078
0,6566;105,84410;0,08081;105,84410
0,6594;106,24625;0,08137;106,24625
0,6623;106,64665;0,08165;106,64665
0,6653;107,06928;0,08221;107,06928
0,6683;107,48342;0,08248;107,48342
0,6713;107,88499;0,08302;107,88499
0,6745;108,29261;0,08355;108,29261
0,6778;108,69476;0,08382;108,69476
0,6818;109,11181;0,08435;109,11181
0,6865;109,51547;0,08512;109,51547
0,6938;109,91785;0,08616;109,91785
0,7537;110,31895;0,09533;110,31895
0,7648;110,72529;0,09762;110,72529
0,7713;111,13291;0,09887;111,13291
0,7766;111,53716;0,10021;111,53716
0,7813;111,93803;0,10115;111,93803
0,7860;112,34413;0,10265;112,34413
0,7916;112,75071;0,10424;112,75071
1,0567;113,15076;0,36296;113,15076
1,2801;113,55605;0,67291;113,55605
1,2850;113,97275;0,67896;113,97275
1,2891;114,37897;0,68294;114,37897
1,2933;114,79102;0,68688;114,79102
1,2978;115,20294;0,69271;115,20294
1,3038;115,60649;0,69848;115,60649
1,4288;116,00654;0,91861;116,00654
1,5230;116,04949;1,52290;116,04949
1,5812;116,06963;2,14416;116,06963
1,6282;116,08267;2,75709;116,08267
1,6714;116,09303;3,37917;116,09303
1,7127;116,10117;4,00110;116,10117
1,7540;116,11025;4,62814;116,11025
1,7746;116,11584;4,93813;116,11584
1,7752;116,11607;4,93813;116,11607
