Part protocol
Network name;Part_OP10_MP-002_2020-08-25_14-20-12_0002_OK.csv
Protocol version;2.01.00

Index;Result information;Process values - curve related;Process values - EO related;Evaluation objects settings;Switch signal settings;Device information;Channel-X settings;Channel-Y settings;Cycle control settings;Evaluation settings;Trigger Y settings;Block settings;Measuring curve;Measuring points;Sequence;
Line;10;30;40;70;100;120;150;190;220;240;250;260;270;280;570;



Result information
Date;2020/08/25
Time;14:20:12
Cycle number;2
Total result;OK
Triggered switch signals
Part serial number;0002
Measuring program name;D57-Right
Measuring program number;2
Zero X offset;0,00;mm
Tara Y offset;0,0;kN









Process values - curve related
Block X;116,16;mm;XMIN-X;-0,05;mm
Block Y;4,9;kN;XMIN-Y;0,0;kN
Ref X;-;mm;XMAX-X;116,16;mm
Peak-peak X;116,20;mm;XMAX-Y;4,9;kN
Peak-peak Y;5,0;kN;YMIN-X;0,37;mm
;;;YMIN-Y;0,0;kN
;;;YMAX-X;116,15;mm
;;;YMAX-Y;4,9;kN

Process values - EO related;Result;Entry;Exit;XMIN-X;XMIN-Y;XMAX-X;XMAX-Y;YMIN-Y;YMIN-X;YMAX-Y;YMAX-X
;;;;mm;kN;mm;kN;kN;mm;kN;mm
EO-01;OK;0,7;0,7;;;;;0,7;115,00;0,7;115,34;;;;;;
EO-02;OK;;116,13;116,11;2,3;116,13;3,1;2,3;116,11;;;;;;;;
EO-03;None;
EO-04;None;
























Evaluation objects settings;Reaction;X reference;Y-Reference;XMin;XMax;YMin;YMax;Entry;Exit;Curve part;Catch zone X;Catch zone Y
EO-01;UNI-BOX;ABSOLUTE;-;115,00;115,50;0,4;2,0;LEFT;RIGHT;ANY;+50%;+50%
EO-02;UNI-BOX;ABSOLUTE;-;115,40;117,10;2,3;3,3;ANY;ABOVE;ANY;+50%;+50%
EO-03;OFF
EO-04;OFF

























Switch signal settings;Channel;Threshold at;;Trigger from;Reference;Latch until
Type S1;OFF
Type S2;OFF

















Device information
Device type;maXYmos BL
Device type number;5867B1011
Device serial number;5182443
Firmware version;2.3.2 (r22473-BL_v2.3.x)
-
-
-
-
-
IP Address;10.0.0.18
Network name;OP10
Profibus address;10
-
-
-
Station name;OP10
Company name;
Comment;











Channel-X settings
Use the settings from global setup;True
Sensor-X type;Â±10V
Unit;mm
Used range from;0,00;mm
Used range to;200,00;mm
Decimal places;XXXX.XX
Scaling by;Teach-In
Point 1;0,00;mm;-0,350;%
Point 2;200,00;mm;10,000;%
Invert signal;FALSE
Filter;20 Hz
Test point;0,00;mm
Tolerance;2,00;mm
Enable sensor test by dig-input;FALSE
Zoom from;100,00;mm
Zoom to;120,00;mm























Channel-Y settings
Use the settings from global setup;True
Sensor-Y type;Strain Gage
Unit;kN
Used range from;0,0;kN
Used range to;20,0;kN
Decimal places;XXXXX.X
Scaling by;Teach-In
Point 1;0,0;kN;-0,01562;%
Point 2;20,0;kN;2,00000;%
Invert signal;FALSE
Filter;1 Hz
Piezo reset;-
Test point;0,0;kN
Tolerance;0,1;kN
Enable sensor test by dig-input;FALSE
Zoom from;0,0;kN
Zoom to;5,0;kN












Cycle control settings
Use the settings from global setup;True
Measuring function;Y (X)
Delta-X;Automatic
START condition;Dig-Input
STOP condition;Dig-Input
Cycle time out;20,00;s
Turning point RIGHT;YMAX
Turning point LEFT;NONE
Cut curve at;NONE










Evaluation settings
Capture only first NOK-EO for statistics;False
Hysteresis-X;0,0;%
Hysteresis-Y;100,0;%






Trigger Y settings
Threshold;1,8;kN
Value X at TRIGGER Y;0,00;mm
Approach from;BELOW






Block settings
Value X at block;XMAX
Block at;0,00;mm







Measuring curve
Number of measuring points;286
Ref. Graph on;ABSOLUTE
Curve segments;0;285;284;286;


Time;X(ABSOLUTE);Y;X (ABSOLUTE)


s;mm;kN;mm
0,0000;-0,04653;-0,04679;-0,04653
0,1093;0,36668;-0,04680;0,36668
0,1126;0,78687;-0,04680;0,78687
0,1151;1,21905;-0,04679;1,21905
0,1170;1,62899;-0,04679;1,62899
0,1187;2,05559;-0,04679;2,05559
0,1202;2,47741;-0,04678;2,47741
0,1217;2,93205;-0,04677;2,93205
0,1230;3,34863;-0,04676;3,34863
0,1243;3,77476;-0,04676;3,77476
0,1256;4,20368;-0,04675;4,20368
0,1269;4,63039;-0,04674;4,63039
0,1282;5,05174;-0,04674;5,05174
0,1295;5,46518;-0,04673;5,46518
0,1309;5,86885;-0,04671;5,86885
0,1324;6,31639;-0,04669;6,31639
0,1339;6,74869;-0,04669;6,74869
0,1354;7,16678;-0,04668;7,16678
0,1369;7,57289;-0,04666;7,57289
0,1386;8,01822;-0,04663;8,01822
0,1402;8,45424;-0,04660;8,45424
0,1419;8,88363;-0,04657;8,88363
0,1436;9,30871;-0,04654;9,30871
0,1453;9,73169;-0,04650;9,73169
0,1470;10,15433;-0,04650;10,15433
0,1487;10,57754;-0,04646;10,57754
0,1504;11,00181;-0,04642;11,00181
0,1521;11,42735;-0,04637;11,42735
0,1538;11,85371;-0,04632;11,85371
0,1554;12,28054;-0,04627;12,28054
0,1571;12,70701;-0,04620;12,70701
0,1588;13,13244;-0,04615;13,13244
0,1605;13,55566;-0,04607;13,55566
0,1622;13,97608;-0,04601;13,97608
0,1639;14,39301;-0,04601;14,39301
0,1656;14,80587;-0,04593;14,80587
0,1673;15,21431;-0,04585;15,21431
0,1690;15,61820;-0,04576;15,61820
0,1708;16,06144;-0,04568;16,06144
0,1727;16,49886;-0,04557;16,49886
0,1746;16,93045;-0,04548;16,93045
0,1765;17,35635;-0,04537;17,35635
0,1784;17,77689;-0,04526;17,77689
0,1802;18,19242;-0,04515;18,19242
0,1821;18,60354;-0,04503;18,60354
0,1840;19,01081;-0,04490;19,01081
0,1859;19,41435;-0,04477;19,41435
0,1877;19,81476;-0,04463;19,81476
0,1898;20,25194;-0,04449;20,25194
0,1919;20,68610;-0,04434;20,68610
0,1939;21,11781;-0,04419;21,11781
0,1960;21,54790;-0,04387;21,54790
0,1981;21,97693;-0,04370;21,97693
0,2001;22,40539;-0,04352;22,40539
0,2022;22,83338;-0,04333;22,83338
0,2043;23,26113;-0,04315;23,26113
0,2063;23,68912;-0,04295;23,68912
0,2084;24,11735;-0,04275;24,11735
0,2105;24,54615;-0,04255;24,54615
0,2125;24,97542;-0,04233;24,97542
0,2146;25,40550;-0,04212;25,40550
0,2167;25,83605;-0,04166;25,83605
0,2187;26,26695;-0,04143;26,26695
0,2208;26,69809;-0,04118;26,69809
0,2228;27,12922;-0,04093;27,12922
0,2249;27,56047;-0,04068;27,56047
0,2270;27,99183;-0,04041;27,99183
0,2290;28,42320;-0,04015;28,42320
0,2311;28,85456;-0,03987;28,85456
0,2332;29,28569;-0,03958;29,28569
0,2352;29,71647;-0,03930;29,71647
0,2373;30,14702;-0,03871;30,14702
0,2394;30,57711;-0,03840;30,57711
0,2414;31,00684;-0,03809;31,00684
0,2435;31,43635;-0,03777;31,43635
0,2456;31,86585;-0,03745;31,86585
0,2476;32,29512;-0,03712;32,29512
0,2497;32,72427;-0,03678;32,72427
0,2518;33,15308;-0,03644;33,15308
0,2538;33,58176;-0,03609;33,58176
0,2559;34,01034;-0,03573;34,01034
0,2580;34,43891;-0,03501;34,43891
0,2600;34,86736;-0,03463;34,86736
0,2621;35,29535;-0,03425;35,29535
0,2642;35,72264;-0,03387;35,72264
0,2662;36,14889;-0,03348;36,14889
0,2683;36,57420;-0,03309;36,57420
0,2703;36,99835;-0,03269;36,99835
0,2724;37,42133;-0,03228;37,42133
0,2745;37,84315;-0,03186;37,84315
0,2765;38,26357;-0,03145;38,26357
0,2786;38,68260;-0,03060;38,68260
0,2807;39,10000;-0,03016;39,10000
0,2827;39,51577;-0,02972;39,51577
0,2848;39,93014;-0,02927;39,93014
0,2869;40,34323;-0,02883;40,34323
0,2889;40,75480;-0,02837;40,75480
0,2910;41,16487;-0,02791;41,16487
0,2931;41,57319;-0,02745;41,57319
0,2951;41,97964;-0,02698;41,97964
0,2972;42,38435;-0,02650;42,38435
0,2993;42,78743;-0,02554;42,78743
0,3013;43,18888;-0,02506;43,18888
0,3036;43,62490;-0,02456;43,62490
0,3058;44,05918;-0,02407;44,05918
0,3081;44,49182;-0,02357;44,49182
0,3103;44,92284;-0,02306;44,92284
0,3126;45,35234;-0,02204;45,35234
0,3148;45,78045;-0,02153;45,78045
0,3171;46,20716;-0,02101;46,20716
0,3193;46,63270;-0,02049;46,63270
0,3216;47,05708;-0,01996;47,05708
0,3239;47,48042;-0,01890;47,48042
0,3261;47,90259;-0,01836;47,90259
0,3284;48,32359;-0,01782;48,32359
0,3306;48,74390;-0,01728;48,74390
0,3329;49,16386;-0,01673;49,16386
0,3351;49,58381;-0,01563;49,58381
0,3374;50,00401;-0,01507;50,00401
0,3396;50,42455;-0,01452;50,42455
0,3419;50,84543;-0,01395;50,84543
0,3441;51,26691;-0,01339;51,26691
0,3464;51,68896;-0,01226;51,68896
0,3486;52,11171;-0,01168;52,11171
0,3509;52,53528;-0,01112;52,53528
0,3531;52,96001;-0,01055;52,96001
0,3554;53,38613;-0,00996;53,38613
0,3576;53,81401;-0,00881;53,81401
0,3599;54,24351;-0,00822;54,24351
0,3622;54,67511;-0,00764;54,67511
0,3644;55,10903;-0,00706;55,10903
0,3667;55,54540;-0,00647;55,54540
0,3687;55,94755;-0,00529;55,94755
0,3708;56,35180;-0,00470;56,35180
0,3729;56,75814;-0,00411;56,75814
0,3749;57,16634;-0,00351;57,16634
0,3770;57,57652;-0,00292;57,57652
0,3790;57,98856;-0,00233;57,98856
0,3811;58,40235;-0,00172;58,40235
0,3832;58,81777;-0,00113;58,81777
0,3852;59,23447;-0,00053;59,23447
0,3873;59,65186;0,00007;59,65186
0,3894;60,06996;0,00127;60,06996
0,3914;60,48829;0,00187;60,48829
0,3935;60,90685;0,00247;60,90685
0,3956;61,32506;0,00308;61,32506
0,3976;61,74269;0,00368;61,74269
0,3997;62,15939;0,00428;62,15939
0,4018;62,57458;0,00489;62,57458
0,4038;62,98767;0,00549;62,98767
0,4059;63,39831;0,00609;63,39831
0,4080;63,80605;0,00669;63,80605
0,4100;64,21064;0,00789;64,21064
0,4121;64,61151;0,00850;64,61151
0,4143;65,04451;0,00910;65,04451
0,4166;65,47261;0,00970;65,47261
0,4188;65,89548;0,01030;65,89548
0,4211;66,31288;0,01090;66,31288
0,4234;66,72445;0,01210;66,72445
0,4256;67,13056;0,01269;67,13056
0,4279;67,53108;0,01329;67,53108
0,4303;67,95907;0,01388;67,95907
0,4327;68,38101;0,01507;68,38101
0,4352;68,79701;0,01566;68,79701
0,4376;69,20730;0,01624;69,20730
0,4401;69,61236;0,01742;69,61236
0,4425;70,01253;0,01800;70,01253
0,4451;70,43878;0,01859;70,43878
0,4478;70,86048;0,01975;70,86048
0,4504;71,27800;0,02033;71,27800
0,4530;71,69155;0,02090;71,69155
0,4556;72,10162;0,02205;72,10162
0,4583;72,50842;0,02261;72,50842
0,4609;72,91278;0,02374;72,91278
0,4635;73,31516;0,02431;73,31516
0,4662;73,71627;0,02486;73,71627
0,4690;74,14449;0,02598;74,14449
0,4718;74,57131;0,02653;74,57131
0,4746;74,99697;0,02763;74,99697
0,4774;75,42217;0,02818;75,42217
0,4802;75,84737;0,02926;75,84737
0,4831;76,27314;0,02980;76,27314
0,4859;76,70020;0,03086;76,70020
0,4887;77,12877;0,03139;77,12877
0,4913;77,53057;0,03243;77,53057
0,4939;77,93400;0,03296;77,93400
0,4966;78,33871;0,03399;78,33871
0,4992;78,74459;0,03450;78,74459
0,5018;79,15139;0,03501;79,15139
0,5045;79,55936;0,03602;79,55936
0,5071;79,96838;0,03653;79,96838
0,5097;80,37868;0,03752;80,37868
0,5123;80,79037;0,03801;80,79037
0,5150;81,20323;0,03850;81,20323
0,5176;81,61702;0,03947;81,61702
0,5202;82,03174;0,03994;82,03174
0,5229;82,44727;0,04089;82,44727
0,5255;82,86350;0,04137;82,86350
0,5281;83,28009;0,04184;83,28009
0,5307;83,69679;0,04276;83,69679
0,5334;84,11325;0,04323;84,11325
0,5360;84,52948;0,04413;84,52948
0,5386;84,94583;0,04459;84,94583
0,5413;85,36230;0,04503;85,36230
0,5439;85,77888;0,04592;85,77888
0,5465;86,19535;0,04637;86,19535
0,5491;86,61158;0,04724;86,61158
0,5518;87,02712;0,04767;87,02712
0,5544;87,44184;0,04810;87,44184
0,5570;87,85574;0,04894;87,85574
0,5597;88,26872;0,04936;88,26872
0,5623;88,68064;0,05019;88,68064
0,5649;89,09164;0,05060;89,09164
0,5675;89,50147;0,05101;89,50147
0,5702;89,91002;0,05182;89,91002
0,5728;90,31764;0,05222;90,31764
0,5754;90,72433;0,05301;90,72433
0,5781;91,13055;0,05341;91,13055
0,5807;91,53666;0,05380;91,53666
0,5833;91,94218;0,05457;91,94218
0,5859;92,34724;0,05495;92,34724
0,5886;92,75172;0,05571;92,75172
0,5912;93,15515;0,05608;93,15515
0,5938;93,55730;0,05645;93,55730
0,5965;93,95794;0,05718;93,95794
0,5993;94,38558;0,05754;94,38558
0,6021;94,81182;0,05826;94,81182
0,6049;95,23655;0,05861;95,23655
0,6077;95,65988;0,05932;95,65988
0,6105;96,08112;0,05967;96,08112
0,6133;96,49933;0,06035;96,49933
0,6162;96,91417;0,06069;96,91417
0,6190;97,32563;0,06137;97,32563
0,6218;97,73395;0,06170;97,73395
0,6246;98,13924;0,06236;98,13924
0,6274;98,54151;0,06269;98,54151
0,6304;98,96705;0,06333;98,96705
0,6334;99,38899;0,06396;99,38899
0,6364;99,80697;0,06428;99,80697
0,6394;100,22146;0,06490;100,22146
0,6424;100,63303;0,06520;100,63303
0,6455;101,04217;0,06581;101,04217
0,6485;101,44909;0,06642;101,44909
0,6515;101,85345;0,06670;101,85345
0,6545;102,25490;0,06730;102,25490
0,6577;102,67812;0,06758;102,67812
0,6608;103,09807;0,06815;103,09807
0,6640;103,51466;0,06871;103,51466
0,6672;103,92833;0,06927;103,92833
0,6704;104,33932;0,06954;104,33932
0,6736;104,74892;0,07008;104,74892
0,6768;105,15841;0,07062;105,15841
0,6800;105,56847;0,07088;105,56847
0,6832;105,97935;0,07141;105,97935
0,6864;106,39104;0,07191;106,39104
0,6896;106,80274;0,07217;106,80274
0,6928;107,21140;0,07267;107,21140
0,6960;107,61227;0,07317;107,61227
0,6993;108,02397;0,07366;108,02397
0,7029;108,43845;0,07415;108,43845
0,7067;108,84165;0,07463;108,84165
0,7110;109,24473;0,07510;109,24473
0,7166;109,64642;0,07581;109,64642
0,7299;110,04705;0,07745;110,04705
0,7861;110,44990;0,08592;110,44990
0,7941;110,85461;0,08746;110,85461
0,8002;111,26851;0,08870;111,26851
0,8052;111,67113;0,09003;111,67113
0,8101;112,08375;0,09146;112,08375
0,8150;112,48858;0,09247;112,48858
0,8212;112,89387;0,09463;112,89387
1,2977;113,29416;0,64059;113,29416
1,3061;113,69654;0,65077;113,69654
1,3108;114,10614;0,65476;114,10614
1,3149;114,51295;0,66065;114,51295
1,3191;114,92802;0,66454;114,92802
1,3236;115,33633;0,66838;115,33633
1,3301;115,74256;0,67599;115,74256
1,5196;116,07801;1,28880;116,07801
1,5834;116,10071;1,90659;116,10071
1,6322;116,11491;2,52304;116,11491
1,6754;116,12713;3,14103;116,12713
1,7167;116,13807;3,76828;116,13807
1,7561;116,14692;4,37789;116,14692
1,7918;116,15495;4,92397;116,15495
1,7922;116,15518;4,92397;116,15518
