Part protocol
Network name;Part_OP10_MP-001_2020-08-26_14-59-53_0018_OK.csv
Protocol version;2.01.00

Index;Result information;Process values - curve related;Process values - EO related;Evaluation objects settings;Switch signal settings;Device information;Channel-X settings;Channel-Y settings;Cycle control settings;Evaluation settings;Trigger Y settings;Block settings;Measuring curve;Measuring points;Sequence;
Line;10;30;40;70;100;120;150;190;220;240;250;260;270;280;600;



Result information
Date;2020/08/26
Time;14:59:53
Cycle number;18
Total result;OK
Triggered switch signals
Part serial number;0018
Measuring program name;D57-Left
Measuring program number;1
Zero X offset;0,00;mm
Tara Y offset;0,0;kN









Process values - curve related
Block X;126,41;mm;XMIN-X;-0,18;mm
Block Y;7,3;kN;XMIN-Y;0,0;kN
Ref X;-;mm;XMAX-X;126,41;mm
Peak-peak X;126,58;mm;XMAX-Y;7,3;kN
Peak-peak Y;7,5;kN;YMIN-X;0,23;mm
;;;YMIN-Y;0,0;kN
;;;YMAX-X;126,40;mm
;;;YMAX-Y;7,5;kN

Process values - EO related;Result;Entry;Exit;XMIN-X;XMIN-Y;XMAX-X;XMAX-Y;YMIN-Y;YMIN-X;YMAX-Y;YMAX-X
;;;;mm;kN;mm;kN;kN;mm;kN;mm
EO-01;OK;0,7;0,8;;;;;0,7;124,50;0,8;125,30;;;;;;
EO-02;OK;126,36;126,37;126,36;4,5;126,37;5,0;;;;;;;;;;
EO-03;None;
EO-04;None;
























Evaluation objects settings;Reaction;X reference;Y-Reference;XMin;XMax;YMin;YMax;Entry;Exit;Curve part;Catch zone X;Catch zone Y
EO-01;UNI-BOX;ABSOLUTE;-;124,50;125,70;0,5;3,0;LEFT;RIGHT;ANY;+50%;+50%
EO-02;UNI-BOX;ABSOLUTE;-;125,80;127,20;4,5;5,5;BELOW;ABOVE;ANY;+50%;+50%
EO-03;OFF
EO-04;OFF

























Switch signal settings;Channel;Threshold at;;Trigger from;Reference;Latch until
Type S1;OFF
Type S2;OFF

















Device information
Device type;maXYmos BL
Device type number;5867B1011
Device serial number;5182443
Firmware version;2.3.2 (r22473-BL_v2.3.x)
-
-
-
-
-
IP Address;10.0.0.18
Network name;OP10
Profibus address;10
-
-
-
Station name;OP10
Company name;
Comment;











Channel-X settings
Use the settings from global setup;True
Sensor-X type;Â±10V
Unit;mm
Used range from;0,00;mm
Used range to;200,00;mm
Decimal places;XXXX.XX
Scaling by;Teach-In
Point 1;0,00;mm;-0,350;%
Point 2;200,00;mm;10,000;%
Invert signal;FALSE
Filter;20 Hz
Test point;0,00;mm
Tolerance;2,00;mm
Enable sensor test by dig-input;FALSE
Zoom from;110,00;mm
Zoom to;133,11;mm























Channel-Y settings
Use the settings from global setup;True
Sensor-Y type;Strain Gage
Unit;kN
Used range from;0,0;kN
Used range to;20,0;kN
Decimal places;XXXXX.X
Scaling by;Teach-In
Point 1;0,0;kN;-0,01562;%
Point 2;20,0;kN;2,00000;%
Invert signal;FALSE
Filter;1 Hz
Piezo reset;-
Test point;0,0;kN
Tolerance;0,1;kN
Enable sensor test by dig-input;FALSE
Zoom from;0,0;kN
Zoom to;6,0;kN












Cycle control settings
Use the settings from global setup;True
Measuring function;Y (X)
Delta-X;Automatic
START condition;Dig-Input
STOP condition;Dig-Input
Cycle time out;20,00;s
Turning point RIGHT;YMAX
Turning point LEFT;NONE
Cut curve at;NONE










Evaluation settings
Capture only first NOK-EO for statistics;False
Hysteresis-X;0,0;%
Hysteresis-Y;100,0;%






Trigger Y settings
Threshold;1,9;kN
Value X at TRIGGER Y;0,00;mm
Approach from;BELOW






Block settings
Value X at block;XMAX
Block at;0,00;mm







Measuring curve
Number of measuring points;317
Ref. Graph on;ABSOLUTE
Curve segments;0;317;316;317;


Time;X(ABSOLUTE);Y;X (ABSOLUTE)


s;mm;kN;mm
0,0000;-0,17550;-0,03479;-0,17550
0,0989;0,22991;-0,03483;0,22991
0,1029;0,64358;-0,03483;0,64358
0,1057;1,05702;-0,03483;1,05702
0,1080;1,46092;-0,03483;1,46092
0,1100;1,88844;-0,03483;1,88844
0,1119;2,32446;-0,03483;2,32446
0,1136;2,75501;-0,03482;2,75501
0,1151;3,16764;-0,03482;3,16764
0,1166;3,60808;-0,03482;3,60808
0,1179;4,01593;-0,03482;4,01593
0,1192;4,44509;-0,03481;4,44509
0,1205;4,89484;-0,03481;4,89484
0,1217;5,29501;-0,03481;5,29501
0,1228;5,70589;-0,03480;5,70589
0,1239;6,12352;-0,03480;6,12352
0,1250;6,54313;-0,03480;6,54313
0,1262;6,95995;-0,03480;6,95995
0,1273;7,36954;-0,03479;7,36954
0,1286;7,83420;-0,03478;7,83420
0,1299;8,28197;-0,03478;8,28197
0,1312;8,71183;-0,03477;8,71183
0,1325;9,12399;-0,03476;9,12399
0,1340;9,57409;-0,03475;9,57409
0,1355;10,00278;-0,03475;10,00278
0,1371;10,41145;-0,03474;10,41145
0,1387;10,85084;-0,03473;10,85084
0,1404;11,27394;-0,03472;11,27394
0,1421;11,68692;-0,03470;11,68692
0,1438;12,09454;-0,03468;12,09454
0,1455;12,49960;-0,03466;12,49960
0,1472;12,90396;-0,03464;12,90396
0,1489;13,30913;-0,03461;13,30913
0,1506;13,71710;-0,03461;13,71710
0,1523;14,12938;-0,03460;14,12938
0,1539;14,54642;-0,03457;14,54642
0,1556;14,96766;-0,03454;14,96766
0,1573;15,39239;-0,03451;15,39239
0,1590;15,82027;-0,03448;15,82027
0,1607;16,25140;-0,03444;16,25140
0,1624;16,68579;-0,03440;16,68579
0,1641;17,12297;-0,03436;17,12297
0,1658;17,56225;-0,03433;17,56225
0,1675;18,00316;-0,03433;18,00316
0,1692;18,44570;-0,03428;18,44570
0,1708;18,89022;-0,03423;18,89022
0,1725;19,33660;-0,03419;19,33660
0,1742;19,78438;-0,03414;19,78438
0,1759;20,23285;-0,03409;20,23285
0,1776;20,68214;-0,03403;20,68214
0,1791;21,08243;-0,03398;21,08243
0,1806;21,48388;-0,03398;21,48388
0,1821;21,88649;-0,03391;21,88649
0,1836;22,28992;-0,03385;22,28992
0,1851;22,69370;-0,03379;22,69370
0,1866;23,09748;-0,03373;23,09748
0,1881;23,50149;-0,03373;23,50149
0,1896;23,90597;-0,03365;23,90597
0,1911;24,31103;-0,03359;24,31103
0,1926;24,71644;-0,03351;24,71644
0,1941;25,12185;-0,03343;25,12185
0,1956;25,52667;-0,03343;25,52667
0,1971;25,93080;-0,03336;25,93080
0,1986;26,33423;-0,03327;26,33423
0,2001;26,73754;-0,03319;26,73754
0,2016;27,14074;-0,03311;27,14074
0,2031;27,54347;-0,03311;27,54347
0,2046;27,94539;-0,03301;27,94539
0,2061;28,34591;-0,03292;28,34591
0,2078;28,79462;-0,03283;28,79462
0,2095;29,24146;-0,03273;29,24146
0,2112;29,68621;-0,03263;29,68621
0,2129;30,12898;-0,03254;30,12898
0,2146;30,56919;-0,03244;30,56919
0,2163;31,00650;-0,03244;31,00650
0,2180;31,44089;-0,03233;31,44089
0,2197;31,87248;-0,03223;31,87248
0,2213;32,30152;-0,03211;32,30152
0,2230;32,72823;-0,03200;32,72823
0,2247;33,15226;-0,03189;33,15226
0,2264;33,57385;-0,03178;33,57385
0,2281;33,99288;-0,03166;33,99288
0,2298;34,40969;-0,03154;34,40969
0,2315;34,82429;-0,03142;34,82429
0,2332;35,23657;-0,03142;35,23657
0,2349;35,64640;-0,03130;35,64640
0,2366;36,05356;-0,03118;36,05356
0,2382;36,45815;-0,03105;36,45815
0,2399;36,86042;-0,03092;36,86042
0,2416;37,26047;-0,03079;37,26047
0,2435;37,70243;-0,03066;37,70243
0,2454;38,14171;-0,03053;38,14171
0,2473;38,57866;-0,03039;38,57866
0,2491;39,01340;-0,03026;39,01340
0,2510;39,44639;-0,03012;39,44639
0,2529;39,87764;-0,02999;39,87764
0,2548;40,30726;-0,02985;40,30726
0,2566;40,73548;-0,02971;40,73548
0,2585;41,16231;-0,02956;41,16231
0,2604;41,58774;-0,02942;41,58774
0,2623;42,01165;-0,02927;42,01165
0,2642;42,43405;-0,02912;42,43405
0,2660;42,85494;-0,02898;42,85494
0,2679;43,27432;-0,02883;43,27432
0,2698;43,69218;-0,02868;43,69218
0,2717;44,10876;-0,02853;44,10876
0,2735;44,52383;-0,02837;44,52383
0,2754;44,93786;-0,02823;44,93786
0,2773;45,35083;-0,02807;45,35083
0,2792;45,76299;-0,02792;45,76299
0,2810;46,17468;-0,02776;46,17468
0,2829;46,58579;-0,02761;46,58579
0,2848;46,99598;-0,02745;46,99598
0,2867;47,40499;-0,02729;47,40499
0,2886;47,81261;-0,02713;47,81261
0,2904;48,21860;-0,02697;48,21860
0,2923;48,62273;-0,02681;48,62273
0,2942;49,02523;-0,02665;49,02523
0,2961;49,42633;-0,02649;49,42633
0,2981;49,86631;-0,02633;49,86631
0,3002;50,30524;-0,02616;50,30524
0,3023;50,74347;-0,02601;50,74347
0,3043;51,18101;-0,02584;51,18101
0,3064;51,61772;-0,02567;51,61772
0,3085;52,05340;-0,02535;52,05340
0,3105;52,48790;-0,02518;52,48790
0,3126;52,92125;-0,02501;52,92125
0,3147;53,35319;-0,02485;53,35319
0,3167;53,78363;-0,02468;53,78363
0,3188;54,21266;-0,02451;54,21266
0,3208;54,64007;-0,02435;54,64007
0,3229;55,06608;-0,02418;55,06608
0,3250;55,49070;-0,02401;55,49070
0,3270;55,91391;-0,02384;55,91391
0,3291;56,33585;-0,02351;56,33585
0,3312;56,75651;-0,02334;56,75651
0,3332;57,17577;-0,02316;57,17577
0,3353;57,59386;-0,02300;57,59386
0,3374;58,01044;-0,02283;58,01044
0,3394;58,42551;-0,02266;58,42551
0,3415;58,83919;-0,02249;58,83919
0,3436;59,25123;-0,02232;59,25123
0,3456;59,66176;-0,02215;59,66176
0,3477;60,07077;-0,02198;60,07077
0,3498;60,47839;-0,02165;60,47839
0,3518;60,88462;-0,02147;60,88462
0,3539;61,28956;-0,02130;61,28956
0,3560;61,69334;-0,02114;61,69334
0,3580;62,09584;-0,02097;62,09584
0,3601;62,49706;-0,02079;62,49706
0,3623;62,93331;-0,02063;62,93331
0,3646;63,36828;-0,02046;63,36828
0,3668;63,80186;-0,02012;63,80186
0,3691;64,23416;-0,01995;64,23416
0,3714;64,66517;-0,01978;64,66517
0,3736;65,09491;-0,01962;65,09491
0,3759;65,52324;-0,01944;65,52324
0,3781;65,94984;-0,01911;65,94984
0,3804;66,37480;-0,01894;66,37480
0,3826;66,79790;-0,01878;66,79790
0,3849;67,21972;-0,01861;67,21972
0,3871;67,64026;-0,01844;67,64026
0,3894;68,05987;-0,01810;68,05987
0,3916;68,47866;-0,01793;68,47866
0,3939;68,89699;-0,01777;68,89699
0,3961;69,31485;-0,01760;69,31485
0,3984;69,73225;-0,01744;69,73225
0,4006;70,14895;-0,01711;70,14895
0,4029;70,56484;-0,01694;70,56484
0,4051;70,97979;-0,01678;70,97979
0,4074;71,39381;-0,01661;71,39381
0,4096;71,80678;-0,01644;71,80678
0,4119;72,21906;-0,01612;72,21906
0,4142;72,63052;-0,01595;72,63052
0,4164;73,04152;-0,01579;73,04152
0,4187;73,45216;-0,01563;73,45216
0,4209;73,86223;-0,01546;73,86223
0,4232;74,27183;-0,01514;74,27183
0,4254;74,68061;-0,01497;74,68061
0,4277;75,08869;-0,01481;75,08869
0,4299;75,49585;-0,01465;75,49585
0,4322;75,90242;-0,01449;75,90242
0,4344;76,30795;-0,01417;76,30795
0,4367;76,71219;-0,01401;76,71219
0,4389;77,11527;-0,01384;77,11527
0,4412;77,51696;-0,01368;77,51696
0,4434;77,91747;-0,01352;77,91747
0,4459;78,35000;-0,01320;78,35000
0,4483;78,78160;-0,01304;78,78160
0,4508;79,21238;-0,01288;79,21238
0,4532;79,64235;-0,01256;79,64235
0,4556;80,07127;-0,01241;80,07127
0,4581;80,49903;-0,01224;80,49903
0,4605;80,92527;-0,01193;80,92527
0,4630;81,34965;-0,01177;81,34965
0,4654;81,77194;-0,01161;81,77194
0,4678;82,19213;-0,01145;82,19213
0,4703;82,61023;-0,01114;82,61023
0,4727;83,02634;-0,01098;83,02634
0,4752;83,44025;-0,01082;83,44025
0,4776;83,85183;-0,01051;83,85183
0,4801;84,26131;-0,01035;84,26131
0,4825;84,66869;-0,01019;84,66869
0,4849;85,07410;-0,00989;85,07410
0,4874;85,47811;-0,00973;85,47811
0,4898;85,88096;-0,00957;85,88096
0,4923;86,28334;-0,00942;86,28334
0,4947;86,68503;-0,00911;86,68503
0,4971;87,08601;-0,00895;87,08601
0,4998;87,51656;-0,00880;87,51656
0,5024;87,94548;-0,00849;87,94548
0,5050;88,37266;-0,00833;88,37266
0,5077;88,79797;-0,00803;88,79797
0,5103;89,22142;-0,00787;89,22142
0,5129;89,64301;-0,00772;89,64301
0,5155;90,06285;-0,00742;90,06285
0,5182;90,48106;-0,00726;90,48106
0,5208;90,89811;-0,00695;90,89811
0,5234;91,31458;-0,00681;91,31458
0,5260;91,73046;-0,00665;91,73046
0,5287;92,14611;-0,00635;92,14611
0,5313;92,56095;-0,00620;92,56095
0,5339;92,97485;-0,00589;92,97485
0,5366;93,38806;-0,00574;93,38806
0,5392;93,80069;-0,00559;93,80069
0,5418;94,21319;-0,00529;94,21319
0,5444;94,62535;-0,00514;94,62535
0,5471;95,03693;-0,00483;95,03693
0,5497;95,44758;-0,00469;95,44758
0,5523;95,85683;-0,00454;95,85683
0,5550;96,26468;-0,00423;96,26468
0,5576;96,67137;-0,00408;96,67137
0,5602;97,07747;-0,00378;97,07747
0,5628;97,48335;-0,00363;97,48335
0,5655;97,88922;-0,00348;97,88922
0,5681;98,29510;-0,00319;98,29510
0,5707;98,70062;-0,00303;98,70062
0,5734;99,10556;-0,00273;99,10556
0,5760;99,50934;-0,00259;99,50934
0,5786;99,91184;-0,00244;99,91184
0,5812;100,31306;-0,00214;100,31306
0,5839;100,71311;-0,00198;100,71311
0,5867;101,14087;-0,00169;101,14087
0,5895;101,56770;-0,00154;101,56770
0,5923;101,99406;-0,00124;101,99406
0,5951;102,41960;-0,00109;102,41960
0,5980;102,84445;-0,00079;102,84445
0,6008;103,26848;-0,00064;103,26848
0,6036;103,69053;-0,00034;103,69053
0,6064;104,10805;-0,00020;104,10805
0,6092;104,51904;0,00010;104,51904
0,6120;104,92212;0,00025;104,92212
0,6150;105,34348;0,00055;105,34348
0,6180;105,75692;0,00070;105,75692
0,6210;106,16256;0,00100;106,16256
0,6242;106,58438;0,00129;106,58438
0,6274;106,99572;0,00144;106,99572
0,6306;107,39682;0,00175;107,39682
0,6340;107,81178;0,00204;107,81178
0,6374;108,21940;0,00235;108,21940
0,6408;108,62248;0,00265;108,62248
0,6441;109,02370;0,00280;109,02370
0,6475;109,42550;0,00312;109,42550
0,6509;109,83044;0,00342;109,83044
0,6543;110,24027;0,00374;110,24027
0,6577;110,65650;0,00405;110,65650
0,6610;111,07984;0,00421;111,07984
0,6642;111,48653;0,00452;111,48653
0,6674;111,89973;0,00485;111,89973
0,6706;112,31934;0,00501;112,31934
0,6738;112,74419;0,00534;112,74419
0,6768;113,14750;0,00567;113,14750
0,6798;113,55337;0,00585;113,55337
0,6828;113,96006;0,00619;113,96006
0,6858;114,36559;0,00653;114,36559
0,6888;114,76832;0,00671;114,76832
0,6920;115,19212;0,00706;115,19212
0,6952;115,61080;0,00742;115,61080
0,6984;116,02482;0,00761;116,02482
0,7016;116,43756;0,00797;116,43756
0,7048;116,85414;0,00835;116,85414
0,7080;117,27876;0,00853;117,27876
0,7110;117,68393;0,00892;117,68393
0,7142;118,09597;0,00931;118,09597
0,7179;118,49754;0,00972;118,49754
0,7241;118,90027;0,01034;118,90027
1,2565;119,19010;0,61124;119,19010
1,2917;119,59516;0,65415;119,59516
1,2960;120,00639;0,66095;120,00639
1,2995;120,41145;0,66320;120,41145
1,3029;120,81697;0,66767;120,81697
1,3065;121,23600;0,67209;121,23600
1,3104;121,64257;0,67649;121,64257
1,3161;122,05112;0,68305;122,05112
1,3320;122,45222;0,70252;122,45222
1,3410;122,85961;0,71344;122,85961
1,3465;123,26642;0,71785;123,26642
1,3514;123,67567;0,72457;123,67567
1,3562;124,08363;0,73141;124,08363
1,3615;124,48881;0,73605;124,48881
1,3673;124,89340;0,74556;124,89340
1,3733;125,29707;0,75290;125,29707
1,3793;125,70131;0,76043;125,70131
1,3883;126,10590;0,77348;126,10590
1,5776;126,26932;1,37362;126,26932
1,6639;126,30715;1,97616;126,30715
1,7315;126,31646;2,58638;126,31646
1,7897;126,33299;3,18793;126,33299
1,8442;126,34801;3,79212;126,34801
1,8967;126,35441;4,39297;126,35441
1,9493;126,36675;4,99330;126,36675
2,0038;126,37234;5,59933;126,37234
2,0620;126,38048;6,21692;126,38048
2,1239;126,39841;6,83143;126,39841
2,1767;126,40516;7,31520;126,40516
2,1915;126,39957;7,44698;126,39957
2,1990;126,39992;7,51181;126,39992
