Part protocol
Network name;Part_OP10_MP-001_2020-08-26_16-24-18_0041_OK.csv
Protocol version;2.01.00

Index;Result information;Process values - curve related;Process values - EO related;Evaluation objects settings;Switch signal settings;Device information;Channel-X settings;Channel-Y settings;Cycle control settings;Evaluation settings;Trigger Y settings;Block settings;Measuring curve;Measuring points;Sequence;
Line;10;30;40;70;100;120;150;190;220;240;250;260;270;280;600;



Result information
Date;2020/08/26
Time;16:24:18
Cycle number;41
Total result;OK
Triggered switch signals
Part serial number;0041
Measuring program name;D57-Left
Measuring program number;1
Zero X offset;0,00;mm
Tara Y offset;0,0;kN









Process values - curve related
Block X;126,39;mm;XMIN-X;-0,17;mm
Block Y;7,5;kN;XMIN-Y;0,0;kN
Ref X;-;mm;XMAX-X;126,39;mm
Peak-peak X;126,56;mm;XMAX-Y;7,5;kN
Peak-peak Y;7,5;kN;YMIN-X;0,24;mm
;;;YMIN-Y;0,0;kN
;;;YMAX-X;126,39;mm
;;;YMAX-Y;7,5;kN

Process values - EO related;Result;Entry;Exit;XMIN-X;XMIN-Y;XMAX-X;XMAX-Y;YMIN-Y;YMIN-X;YMAX-Y;YMAX-X
;;;;mm;kN;mm;kN;kN;mm;kN;mm
EO-01;OK;0,8;0,8;;;;;0,8;124,50;0,8;125,54;;;;;;
EO-02;OK;126,35;126,36;126,35;4,5;126,36;5,0;;;;;;;;;;
EO-03;None;
EO-04;None;
























Evaluation objects settings;Reaction;X reference;Y-Reference;XMin;XMax;YMin;YMax;Entry;Exit;Curve part;Catch zone X;Catch zone Y
EO-01;UNI-BOX;ABSOLUTE;-;124,50;125,70;0,5;3,0;LEFT;RIGHT;ANY;+50%;+50%
EO-02;UNI-BOX;ABSOLUTE;-;125,80;127,20;4,5;5,5;BELOW;ABOVE;ANY;+50%;+50%
EO-03;OFF
EO-04;OFF

























Switch signal settings;Channel;Threshold at;;Trigger from;Reference;Latch until
Type S1;OFF
Type S2;OFF

















Device information
Device type;maXYmos BL
Device type number;5867B1011
Device serial number;5182443
Firmware version;2.3.2 (r22473-BL_v2.3.x)
-
-
-
-
-
IP Address;10.0.0.18
Network name;OP10
Profibus address;10
-
-
-
Station name;OP10
Company name;
Comment;











Channel-X settings
Use the settings from global setup;True
Sensor-X type;Â±10V
Unit;mm
Used range from;0,00;mm
Used range to;200,00;mm
Decimal places;XXXX.XX
Scaling by;Teach-In
Point 1;0,00;mm;-0,350;%
Point 2;200,00;mm;10,000;%
Invert signal;FALSE
Filter;20 Hz
Test point;0,00;mm
Tolerance;2,00;mm
Enable sensor test by dig-input;FALSE
Zoom from;110,00;mm
Zoom to;133,11;mm























Channel-Y settings
Use the settings from global setup;True
Sensor-Y type;Strain Gage
Unit;kN
Used range from;0,0;kN
Used range to;20,0;kN
Decimal places;XXXXX.X
Scaling by;Teach-In
Point 1;0,0;kN;-0,01562;%
Point 2;20,0;kN;2,00000;%
Invert signal;FALSE
Filter;1 Hz
Piezo reset;-
Test point;0,0;kN
Tolerance;0,1;kN
Enable sensor test by dig-input;FALSE
Zoom from;0,0;kN
Zoom to;6,0;kN












Cycle control settings
Use the settings from global setup;True
Measuring function;Y (X)
Delta-X;Automatic
START condition;Dig-Input
STOP condition;Dig-Input
Cycle time out;20,00;s
Turning point RIGHT;YMAX
Turning point LEFT;NONE
Cut curve at;NONE










Evaluation settings
Capture only first NOK-EO for statistics;False
Hysteresis-X;0,0;%
Hysteresis-Y;100,0;%






Trigger Y settings
Threshold;1,9;kN
Value X at TRIGGER Y;0,00;mm
Approach from;BELOW






Block settings
Value X at block;XMAX
Block at;0,00;mm







Measuring curve
Number of measuring points;316
Ref. Graph on;ABSOLUTE
Curve segments;0;315;314;316;


Time;X(ABSOLUTE);Y;X (ABSOLUTE)


s;mm;kN;mm
0,0000;-0,17224;-0,03404;-0,17224
0,0969;0,23934;-0,03410;0,23934
0,1008;0,64766;-0,03410;0,64766
0,1036;1,05656;-0,03410;1,05656
0,1059;1,45708;-0,03410;1,45708
0,1080;1,88169;-0,03410;1,88169
0,1098;2,31550;-0,03409;2,31550
0,1115;2,74454;-0,03409;2,74454
0,1130;3,15646;-0,03409;3,15646
0,1145;3,59679;-0,03409;3,59679
0,1158;4,00522;-0,03409;4,00522
0,1172;4,43508;-0,03409;4,43508
0,1185;4,88600;-0,03408;4,88600
0,1196;5,28780;-0,03408;5,28780
0,1207;5,70065;-0,03408;5,70065
0,1218;6,12038;-0,03408;6,12038
0,1230;6,54197;-0,03407;6,54197
0,1241;6,96006;-0,03407;6,96006
0,1252;7,37047;-0,03407;7,37047
0,1265;7,83525;-0,03406;7,83525
0,1279;8,28232;-0,03405;8,28232
0,1292;8,71113;-0,03405;8,71113
0,1305;9,12177;-0,03404;9,12177
0,1320;9,57025;-0,03403;9,57025
0,1335;9,99766;-0,03402;9,99766
0,1350;10,40609;-0,03402;10,40609
0,1367;10,84619;-0,03401;10,84619
0,1384;11,27103;-0,03399;11,27103
0,1401;11,68645;-0,03398;11,68645
0,1417;12,09698;-0,03397;12,09698
0,1434;12,50507;-0,03395;12,50507
0,1451;12,91234;-0,03392;12,91234
0,1468;13,32019;-0,03390;13,32019
0,1485;13,73037;-0,03387;13,73037
0,1502;14,14404;-0,03385;14,14404
0,1519;14,56156;-0,03385;14,56156
0,1536;14,98256;-0,03383;14,98256
0,1553;15,40636;-0,03380;15,40636
0,1570;15,83284;-0,03376;15,83284
0,1586;16,26222;-0,03373;16,26222
0,1603;16,69475;-0,03370;16,69475
0,1620;17,12961;-0,03366;17,12961
0,1637;17,56644;-0,03361;17,56644
0,1654;18,00468;-0,03358;18,00468
0,1671;18,44477;-0,03353;18,44477
0,1688;18,88661;-0,03353;18,88661
0,1705;19,33020;-0,03348;19,33020
0,1722;19,77483;-0,03344;19,77483
0,1738;20,22005;-0,03338;20,22005
0,1755;20,66619;-0,03333;20,66619
0,1772;21,11374;-0,03327;21,11374
0,1789;21,56314;-0,03322;21,56314
0,1804;21,96401;-0,03315;21,96401
0,1819;22,36546;-0,03315;22,36546
0,1834;22,76715;-0,03309;22,76715
0,1849;23,16895;-0,03302;23,16895
0,1864;23,57098;-0,03296;23,57098
0,1879;23,97348;-0,03288;23,97348
0,1894;24,37668;-0,03288;24,37668
0,1909;24,77999;-0,03281;24,77999
0,1924;25,18330;-0,03273;25,18330
0,1939;25,58615;-0,03266;25,58615
0,1954;25,98865;-0,03258;25,98865
0,1969;26,39092;-0,03258;26,39092
0,1984;26,79330;-0,03249;26,79330
0,1999;27,19568;-0,03241;27,19568
0,2014;27,59771;-0,03232;27,59771
0,2029;27,99893;-0,03223;27,99893
0,2044;28,39898;-0,03223;28,39898
0,2061;28,84746;-0,03214;28,84746
0,2078;29,29442;-0,03204;29,29442
0,2095;29,73975;-0,03195;29,73975
0,2112;30,18334;-0,03185;30,18334
0,2129;30,62472;-0,03174;30,62472
0,2146;31,06365;-0,03164;31,06365
0,2163;31,50013;-0,03153;31,50013
0,2180;31,93406;-0,03143;31,93406
0,2197;32,36554;-0,03132;32,36554
0,2213;32,79458;-0,03132;32,79458
0,2230;33,22128;-0,03120;33,22128
0,2247;33,64567;-0,03109;33,64567
0,2264;34,06795;-0,03097;34,06795
0,2281;34,48826;-0,03085;34,48826
0,2298;34,90682;-0,03073;34,90682
0,2315;35,32340;-0,03061;35,32340
0,2332;35,73777;-0,03049;35,73777
0,2349;36,14982;-0,03036;36,14982
0,2366;36,55988;-0,03023;36,55988
0,2382;36,96797;-0,03023;36,96797
0,2399;37,37407;-0,03010;37,37407
0,2416;37,77808;-0,02997;37,77808
0,2433;38,17977;-0,02983;38,17977
0,2452;38,62359;-0,02970;38,62359
0,2471;39,06473;-0,02956;39,06473
0,2489;39,50354;-0,02942;39,50354
0,2508;39,94026;-0,02928;39,94026
0,2527;40,37524;-0,02914;40,37524
0,2546;40,80881;-0,02900;40,80881
0,2565;41,24111;-0,02886;41,24111
0,2583;41,67201;-0,02871;41,67201
0,2602;42,10128;-0,02857;42,10128
0,2621;42,52868;-0,02842;42,52868
0,2640;42,95411;-0,02827;42,95411
0,2658;43,37745;-0,02812;43,37745
0,2677;43,79845;-0,02797;43,79845
0,2696;44,21760;-0,02782;44,21760
0,2715;44,63499;-0,02766;44,63499
0,2734;45,05111;-0,02750;45,05111
0,2752;45,46618;-0,02736;45,46618
0,2771;45,88032;-0,02720;45,88032
0,2790;46,29306;-0,02704;46,29306
0,2809;46,70429;-0,02688;46,70429
0,2827;47,11354;-0,02673;47,11354
0,2846;47,52069;-0,02656;47,52069
0,2865;47,92575;-0,02640;47,92575
0,2884;48,32883;-0,02625;48,32883
0,2902;48,73040;-0,02608;48,73040
0,2921;49,13092;-0,02592;49,13092
0,2942;49,57066;-0,02576;49,57066
0,2963;50,00959;-0,02560;50,00959
0,2983;50,44748;-0,02543;50,44748
0,3004;50,88408;-0,02510;50,88408
0,3025;51,31940;-0,02493;51,31940
0,3045;51,75321;-0,02477;51,75321
0,3066;52,18585;-0,02461;52,18585
0,3086;52,61745;-0,02444;52,61745
0,3107;53,04812;-0,02426;53,04812
0,3128;53,47785;-0,02410;53,47785
0,3148;53,90666;-0,02393;53,90666
0,3169;54,33441;-0,02376;54,33441
0,3190;54,76089;-0,02360;54,76089
0,3210;55,18585;-0,02326;55,18585
0,3231;55,60919;-0,02309;55,60919
0,3252;56,03077;-0,02292;56,03077
0,3272;56,45097;-0,02276;56,45097
0,3293;56,86988;-0,02258;56,86988
0,3314;57,28786;-0,02241;57,28786
0,3334;57,70514;-0,02225;57,70514
0,3355;58,12183;-0,02207;58,12183
0,3376;58,53760;-0,02190;58,53760
0,3396;58,95221;-0,02173;58,95221
0,3417;59,36530;-0,02140;59,36530
0,3438;59,77676;-0,02122;59,77676
0,3458;60,18682;-0,02105;60,18682
0,3479;60,59561;-0,02089;60,59561
0,3499;61,00358;-0,02071;61,00358
0,3520;61,41073;-0,02054;61,41073
0,3541;61,81707;-0,02037;61,81707
0,3561;62,22236;-0,02020;62,22236
0,3582;62,62602;-0,02003;62,62602
0,3603;63,02806;-0,01986;63,02806
0,3623;63,42834;-0,01953;63,42834
0,3646;63,86355;-0,01935;63,86355
0,3668;64,29724;-0,01918;64,29724
0,3691;64,73024;-0,01902;64,73024
0,3714;65,16242;-0,01884;65,16242
0,3736;65,59401;-0,01851;65,59401
0,3759;66,02456;-0,01834;66,02456
0,3781;66,45395;-0,01816;66,45395
0,3804;66,88171;-0,01800;66,88171
0,3826;67,30795;-0,01783;67,30795
0,3849;67,73280;-0,01750;67,73280
0,3871;68,15636;-0,01733;68,15636
0,3894;68,57900;-0,01716;68,57900
0,3916;69,00093;-0,01699;69,00093
0,3939;69,42264;-0,01682;69,42264
0,3961;69,84399;-0,01649;69,84399
0,3984;70,26500;-0,01632;70,26500
0,4006;70,68531;-0,01616;70,68531
0,4029;71,10456;-0,01599;71,10456
0,4051;71,52208;-0,01582;71,52208
0,4074;71,93761;-0,01550;71,93761
0,4096;72,35140;-0,01533;72,35140
0,4119;72,76391;-0,01517;72,76391
0,4142;73,17572;-0,01500;73,17572
0,4164;73,58718;-0,01484;73,58718
0,4187;73,99818;-0,01451;73,99818
0,4209;74,40836;-0,01434;74,40836
0,4232;74,81738;-0,01418;74,81738
0,4254;75,22499;-0,01402;75,22499
0,4277;75,63099;-0,01385;75,63099
0,4299;76,03535;-0,01353;76,03535
0,4322;76,43843;-0,01337;76,43843
0,4344;76,84046;-0,01320;76,84046
0,4367;77,24168;-0,01305;77,24168
0,4389;77,64220;-0,01288;77,64220
0,4414;78,07531;-0,01256;78,07531
0,4438;78,50749;-0,01240;78,50749
0,4463;78,93839;-0,01224;78,93839
0,4487;79,36789;-0,01192;79,36789
0,4511;79,79600;-0,01176;79,79600
0,4536;80,22270;-0,01160;80,22270
0,4560;80,64825;-0,01144;80,64825
0,4585;81,07310;-0,01112;81,07310
0,4609;81,49689;-0,01096;81,49689
0,4633;81,91965;-0,01081;81,91965
0,4658;82,34112;-0,01049;82,34112
0,4682;82,76096;-0,01033;82,76096
0,4707;83,17917;-0,01018;83,17917
0,4731;83,59552;-0,00986;83,59552
0,4755;84,01001;-0,00970;84,01001
0,4780;84,42287;-0,00955;84,42287
0,4804;84,83398;-0,00939;84,83398
0,4829;85,24381;-0,00908;85,24381
0,4853;85,65236;-0,00893;85,65236
0,4877;86,06021;-0,00877;86,06021
0,4902;86,46713;-0,00845;86,46713
0,4926;86,87336;-0,00831;86,87336
0,4951;87,27865;-0,00815;87,27865
0,4975;87,68289;-0,00784;87,68289
0,5000;88,08609;-0,00769;88,08609
0,5024;88,48824;-0,00753;88,48824
0,5048;88,88923;-0,00738;88,88923
0,5075;89,31966;-0,00707;89,31966
0,5101;89,74811;-0,00692;89,74811
0,5127;90,17471;-0,00661;90,17471
0,5153;90,59944;-0,00646;90,59944
0,5180;91,02277;-0,00631;91,02277
0,5206;91,44517;-0,00600;91,44517
0,5232;91,86711;-0,00585;91,86711
0,5259;92,28881;-0,00555;92,28881
0,5285;92,71005;-0,00540;92,71005
0,5311;93,13059;-0,00525;93,13059
0,5337;93,55008;-0,00495;93,55008
0,5364;93,96795;-0,00480;93,96795
0,5390;94,38441;-0,00449;94,38441
0,5416;94,79971;-0,00434;94,79971
0,5443;95,21374;-0,00420;95,21374
0,5469;95,62671;-0,00390;95,62671
0,5495;96,03840;-0,00374;96,03840
0,5521;96,44882;-0,00345;96,44882
0,5548;96,85818;-0,00330;96,85818
0,5574;97,26650;-0,00315;97,26650
0,5600;97,67377;-0,00285;97,67377
0,5627;98,08011;-0,00271;98,08011
0,5653;98,48552;-0,00241;98,48552
0,5679;98,88965;-0,00226;98,88965
0,5705;99,29261;-0,00211;99,29261
0,5732;99,69430;-0,00182;99,69430
0,5758;100,09458;-0,00167;100,09458
0,5786;100,52234;-0,00138;100,52234
0,5814;100,94905;-0,00123;100,94905
0,5842;101,37506;-0,00094;101,37506
0,5871;101,80049;-0,00079;101,80049
0,5899;102,22499;-0,00050;102,22499
0,5927;102,64820;-0,00035;102,64820
0,5955;103,06956;-0,00006;103,06956
0,5983;103,48765;0,00008;103,48765
0,6011;103,89923;0,00038;103,89923
0,6040;104,30196;0,00052;104,30196
0,6070;104,72122;0,00081;104,72122
0,6100;105,13094;0,00095;105,13094
0,6130;105,53343;0,00125;105,53343
0,6162;105,95386;0,00153;105,95386
0,6194;106,36602;0,00168;106,36602
0,6225;106,76968;0,00197;106,76968
0,6259;107,18917;0,00227;107,18917
0,6293;107,60273;0,00255;107,60273
0,6327;108,01221;0,00285;108,01221
0,6361;108,41948;0,00300;108,41948
0,6394;108,82675;0,00329;108,82675
0,6428;109,23612;0,00359;109,23612
0,6462;109,64967;0,00389;109,64967
0,6496;110,06917;0,00420;110,06917
0,6528;110,47225;0,00435;110,47225
0,6560;110,88289;0,00466;110,88289
0,6592;111,29959;0,00497;111,29959
0,6623;111,71874;0,00513;111,71874
0,6655;112,13625;0,00545;112,13625
0,6687;112,54969;0,00577;112,54969
0,6719;112,95684;0,00594;112,95684
0,6751;113,35701;0,00626;113,35701
0,6785;113,77243;0,00661;113,77243
0,6819;114,17924;0,00695;114,17924
0,6854;114,59978;0,00730;114,59978
0,6890;115,01089;0,00765;115,01089
0,6926;115,41164;0,00784;115,41164
0,6963;115,82066;0,00821;115,82066
0,7003;116,23852;0,00877;116,23852
0,7042;116,65243;0,00916;116,65243
0,7080;117,05318;0,00956;117,05318
0,7117;117,47104;0,00998;117,47104
0,7153;117,87994;0,01039;117,87994
0,7192;118,28849;0,01083;118,28849
0,7249;118,69367;0,01150;118,69367
1,2522;119,05589;0,61219;119,05589
1,2819;119,46642;0,64784;119,46642
1,2862;119,87311;0,65465;119,87311
1,2902;120,28376;0,65913;120,28376
1,2943;120,70209;0,66357;120,70209
1,2986;121,10261;0,66797;121,10261
1,3040;121,50359;0,67449;121,50359
1,3146;121,90667;0,68738;121,90667
1,3266;122,30894;0,70018;122,30894
1,3333;122,71400;0,70878;122,71400
1,3393;123,11906;0,71531;123,11906
1,3463;123,52563;0,72417;123,52563
1,3544;123,92592;0,73329;123,92592
1,3651;124,33086;0,74760;124,33086
1,3735;124,73161;0,75765;124,73161
1,3805;125,13202;0,76816;125,13202
1,3861;125,53789;0,77638;125,53789
1,3928;125,94248;0,78491;125,94248
1,5770;126,25431;1,39536;126,25431
1,6653;126,28981;2,00067;126,28981
1,7328;126,30971;2,60437;126,30971
1,7910;126,32438;3,20456;126,32438
1,8455;126,33672;3,81131;126,33672
1,8981;126,34801;4,41739;126,34801
1,9506;126,35918;5,02460;126,35918
2,0051;126,36582;5,63870;126,36582
2,0614;126,37536;6,24551;126,37536
2,1215;126,38479;6,85199;126,38479
2,1872;126,39189;7,46256;126,39189
2,1909;126,39224;7,49577;126,39224
2,1911;126,39236;7,49577;126,39236
