Part protocol
Network name;Part_OP10_MP-002_2020-08-26_15-10-24_0021_OK.csv
Protocol version;2.01.00

Index;Result information;Process values - curve related;Process values - EO related;Evaluation objects settings;Switch signal settings;Device information;Channel-X settings;Channel-Y settings;Cycle control settings;Evaluation settings;Trigger Y settings;Block settings;Measuring curve;Measuring points;Sequence;
Line;10;30;40;70;100;120;150;190;220;240;250;260;270;280;570;



Result information
Date;2020/08/26
Time;15:10:24
Cycle number;21
Total result;OK
Triggered switch signals
Part serial number;0021
Measuring program name;D57-Right
Measuring program number;2
Zero X offset;0,00;mm
Tara Y offset;0,0;kN









Process values - curve related
Block X;116,12;mm;XMIN-X;0,00;mm
Block Y;4,7;kN;XMIN-Y;0,0;kN
Ref X;-;mm;XMAX-X;116,12;mm
Peak-peak X;116,12;mm;XMAX-Y;4,7;kN
Peak-peak Y;4,7;kN;YMIN-X;0,00;mm
;;;YMIN-Y;0,0;kN
;;;YMAX-X;116,12;mm
;;;YMAX-Y;4,7;kN

Process values - EO related;Result;Entry;Exit;XMIN-X;XMIN-Y;XMAX-X;XMAX-Y;YMIN-Y;YMIN-X;YMAX-Y;YMAX-X
;;;;mm;kN;mm;kN;kN;mm;kN;mm
EO-01;OK;0,7;0,7;;;;;0,7;115,00;0,7;115,30;;;;;;
EO-02;OK;;116,10;116,08;2,3;116,09;3,1;2,3;116,08;;;;;;;;
EO-03;None;
EO-04;None;
























Evaluation objects settings;Reaction;X reference;Y-Reference;XMin;XMax;YMin;YMax;Entry;Exit;Curve part;Catch zone X;Catch zone Y
EO-01;UNI-BOX;ABSOLUTE;-;115,00;115,50;0,4;2,0;LEFT;RIGHT;ANY;+50%;+50%
EO-02;UNI-BOX;ABSOLUTE;-;115,40;117,10;2,3;3,3;ANY;ABOVE;ANY;+50%;+50%
EO-03;OFF
EO-04;OFF

























Switch signal settings;Channel;Threshold at;;Trigger from;Reference;Latch until
Type S1;OFF
Type S2;OFF

















Device information
Device type;maXYmos BL
Device type number;5867B1011
Device serial number;5182443
Firmware version;2.3.2 (r22473-BL_v2.3.x)
-
-
-
-
-
IP Address;10.0.0.18
Network name;OP10
Profibus address;10
-
-
-
Station name;OP10
Company name;
Comment;











Channel-X settings
Use the settings from global setup;True
Sensor-X type;Â±10V
Unit;mm
Used range from;0,00;mm
Used range to;200,00;mm
Decimal places;XXXX.XX
Scaling by;Teach-In
Point 1;0,00;mm;-0,350;%
Point 2;200,00;mm;10,000;%
Invert signal;FALSE
Filter;20 Hz
Test point;0,00;mm
Tolerance;2,00;mm
Enable sensor test by dig-input;FALSE
Zoom from;100,00;mm
Zoom to;120,00;mm























Channel-Y settings
Use the settings from global setup;True
Sensor-Y type;Strain Gage
Unit;kN
Used range from;0,0;kN
Used range to;20,0;kN
Decimal places;XXXXX.X
Scaling by;Teach-In
Point 1;0,0;kN;-0,01562;%
Point 2;20,0;kN;2,00000;%
Invert signal;FALSE
Filter;1 Hz
Piezo reset;-
Test point;0,0;kN
Tolerance;0,1;kN
Enable sensor test by dig-input;FALSE
Zoom from;0,0;kN
Zoom to;5,0;kN












Cycle control settings
Use the settings from global setup;True
Measuring function;Y (X)
Delta-X;Automatic
START condition;Dig-Input
STOP condition;Dig-Input
Cycle time out;20,00;s
Turning point RIGHT;YMAX
Turning point LEFT;NONE
Cut curve at;NONE










Evaluation settings
Capture only first NOK-EO for statistics;False
Hysteresis-X;0,0;%
Hysteresis-Y;100,0;%






Trigger Y settings
Threshold;1,8;kN
Value X at TRIGGER Y;0,00;mm
Approach from;BELOW






Block settings
Value X at block;XMAX
Block at;0,00;mm







Measuring curve
Number of measuring points;287
Ref. Graph on;ABSOLUTE
Curve segments;0;286;285;287;


Time;X(ABSOLUTE);Y;X (ABSOLUTE)


s;mm;kN;mm
0,0000;-0,00277;-0,03562;-0,00277
0,1131;0,41160;-0,03558;0,41160
0,1163;0,81468;-0,03558;0,81468
0,1186;1,21660;-0,03558;1,21660
0,1204;1,63027;-0,03557;1,63027
0,1221;2,06373;-0,03557;2,06373
0,1236;2,49417;-0,03556;2,49417
0,1249;2,89969;-0,03555;2,89969
0,1263;3,32431;-0,03555;3,32431
0,1276;3,75986;-0,03554;3,75986
0,1289;4,19937;-0,03553;4,19937
0,1302;4,63726;-0,03553;4,63726
0,1315;5,06979;-0,03551;5,06979
0,1328;5,49405;-0,03550;5,49405
0,1341;5,90761;-0,03548;5,90761
0,1355;6,30952;-0,03548;6,30952
0,1370;6,75427;-0,03547;6,75427
0,1385;7,18506;-0,03544;7,18506
0,1400;7,60432;-0,03542;7,60432
0,1415;8,01450;-0,03542;8,01450
0,1430;8,41793;-0,03539;8,41793
0,1447;8,86652;-0,03535;8,86652
0,1463;9,31231;-0,03533;9,31231
0,1480;9,75788;-0,03529;9,75788
0,1497;10,20484;-0,03524;10,20484
0,1514;10,65448;-0,03521;10,65448
0,1529;11,05663;-0,03515;11,05663
0,1544;11,46099;-0,03515;11,46099
0,1559;11,86698;-0,03510;11,86698
0,1574;12,27402;-0,03505;12,27402
0,1589;12,68129;-0,03498;12,68129
0,1604;13,08775;-0,03492;13,08775
0,1619;13,49269;-0,03492;13,49269
0,1634;13,89495;-0,03485;13,89495
0,1651;14,34366;-0,03478;14,34366
0,1668;14,78725;-0,03470;14,78725
0,1685;15,22513;-0,03461;15,22513
0,1702;15,65696;-0,03453;15,65696
0,1719;16,08262;-0,03444;16,08262
0,1736;16,50165;-0,03434;16,50165
0,1753;16,91416;-0,03434;16,91416
0,1769;17,32015;-0,03423;17,32015
0,1788;17,76385;-0,03412;17,76385
0,1807;18,20022;-0,03401;18,20022
0,1826;18,63007;-0,03389;18,63007
0,1845;19,05387;-0,03377;19,05387
0,1863;19,47232;-0,03364;19,47232
0,1882;19,88587;-0,03350;19,88587
0,1901;20,29501;-0,03336;20,29501
0,1920;20,70007;-0,03323;20,70007
0,1938;21,10152;-0,03307;21,10152
0,1959;21,53905;-0,03291;21,53905
0,1980;21,97286;-0,03259;21,97286
0,2000;22,40353;-0,03241;22,40353
0,2021;22,83117;-0,03223;22,83117
0,2042;23,25636;-0,03204;23,25636
0,2062;23,67935;-0,03186;23,67935
0,2083;24,10070;-0,03165;24,10070
0,2104;24,52078;-0,03145;24,52078
0,2124;24,93969;-0,03124;24,93969
0,2145;25,35813;-0,03102;25,35813
0,2166;25,77611;-0,03080;25,77611
0,2186;26,19397;-0,03035;26,19397
0,2207;26,61184;-0,03011;26,61184
0,2228;27,03005;-0,02986;27,03005
0,2248;27,44873;-0,02961;27,44873
0,2269;27,86798;-0,02935;27,86798
0,2289;28,28806;-0,02908;28,28806
0,2310;28,70883;-0,02881;28,70883
0,2331;29,13065;-0,02853;29,13065
0,2351;29,55329;-0,02825;29,55329
0,2372;29,97732;-0,02796;29,97732
0,2393;30,40298;-0,02737;30,40298
0,2413;30,83109;-0,02706;30,83109
0,2434;31,26199;-0,02675;31,26199
0,2455;31,69661;-0,02642;31,69661
0,2475;32,13507;-0,02610;32,13507
0,2494;32,53769;-0,02576;32,53769
0,2513;32,94426;-0,02542;32,94426
0,2532;33,35514;-0,02508;33,35514
0,2550;33,77056;-0,02473;33,77056
0,2569;34,19052;-0,02437;34,19052
0,2588;34,61490;-0,02401;34,61490
0,2607;35,04335;-0,02364;35,04335
0,2626;35,47565;-0,02327;35,47565
0,2644;35,91144;-0,02288;35,91144
0,2663;36,35048;-0,02249;36,35048
0,2682;36,79232;-0,02210;36,79232
0,2701;37,23684;-0,02170;37,23684
0,2718;37,63864;-0,02129;37,63864
0,2734;38,04196;-0,02088;38,04196
0,2751;38,44632;-0,02046;38,44632
0,2768;38,85161;-0,02004;38,85161
0,2785;39,25748;-0,02004;39,25748
0,2802;39,66371;-0,01961;39,66371
0,2819;40,07016;-0,01917;40,07016
0,2836;40,47650;-0,01874;40,47650
0,2853;40,88226;-0,01828;40,88226
0,2870;41,28755;-0,01784;41,28755
0,2887;41,69179;-0,01738;41,69179
0,2903;42,09476;-0,01691;42,09476
0,2920;42,49633;-0,01645;42,49633
0,2939;42,94049;-0,01598;42,94049
0,2958;43,38222;-0,01550;43,38222
0,2977;43,82115;-0,01502;43,82115
0,2995;44,25705;-0,01453;44,25705
0,3014;44,68981;-0,01404;44,68981
0,3033;45,11920;-0,01354;45,11920
0,3052;45,54498;-0,01304;45,54498
0,3070;45,96703;-0,01253;45,96703
0,3089;46,38524;-0,01202;46,38524
0,3108;46,79961;-0,01151;46,79961
0,3127;47,20980;-0,01098;47,20980
0,3146;47,61590;-0,01046;47,61590
0,3164;48,01782;-0,00994;48,01782
0,3185;48,45524;-0,00940;48,45524
0,3206;48,88800;-0,00887;48,88800
0,3226;49,31622;-0,00832;49,31622
0,3247;49,73990;-0,00779;49,73990
0,3268;50,15893;-0,00724;50,15893
0,3288;50,57342;-0,00669;50,57342
0,3309;50,98336;-0,00614;50,98336
0,3330;51,38912;-0,00558;51,38912
0,3350;51,79081;-0,00446;51,79081
0,3373;52,22496;-0,00389;52,22496
0,3395;52,65505;-0,00333;52,65505
0,3418;53,08118;-0,00275;53,08118
0,3440;53,50346;-0,00219;53,50346
0,3463;53,92202;-0,00103;53,92202
0,3485;54,33721;-0,00046;54,33721
0,3508;54,74937;0,00013;54,74937
0,3530;55,15897;0,00071;55,15897
0,3553;55,56612;0,00130;55,56612
0,3576;55,97118;0,00248;55,97118
0,3598;56,37438;0,00306;56,37438
0,3621;56,77606;0,00365;56,77606
0,3643;57,17635;0,00426;57,17635
0,3668;57,60923;0,00485;57,60923
0,3692;58,04152;0,00604;58,04152
0,3716;58,47417;0,00663;58,47417
0,3741;58,90739;0,00724;58,90739
0,3763;59,30850;0,00844;59,30850
0,3786;59,71053;0,00904;59,71053
0,3808;60,11349;0,00964;60,11349
0,3831;60,51715;0,01024;60,51715
0,3853;60,92163;0,01085;60,92163
0,3876;61,32727;0,01205;61,32727
0,3898;61,73408;0,01266;61,73408
0,3921;62,14216;0,01326;62,14216
0,3943;62,55141;0,01386;62,55141
0,3966;62,96148;0,01447;62,96148
0,3989;63,37224;0,01568;63,37224
0,4011;63,78382;0,01628;63,78382
0,4034;64,19586;0,01688;64,19586
0,4056;64,60860;0,01749;64,60860
0,4079;65,02181;0,01809;65,02181
0,4101;65,43525;0,01930;65,43525
0,4124;65,84881;0,01990;65,84881
0,4146;66,26213;0,02050;66,26213
0,4169;66,67487;0,02109;66,67487
0,4191;67,08738;0,02170;67,08738
0,4214;67,49954;0,02289;67,49954
0,4236;67,91170;0,02349;67,91170
0,4259;68,32362;0,02408;68,32362
0,4281;68,73497;0,02468;68,73497
0,4304;69,14538;0,02527;69,14538
0,4326;69,55486;0,02645;69,55486
0,4349;69,96295;0,02705;69,96295
0,4372;70,36952;0,02763;70,36952
0,4394;70,77458;0,02821;70,77458
0,4417;71,17801;0,02880;71,17801
0,4439;71,57981;0,02996;71,57981
0,4462;71,97987;0,03055;71,97987
0,4486;72,41111;0,03112;72,41111
0,4510;72,84003;0,03170;72,84003
0,4535;73,26686;0,03285;73,26686
0,4559;73,69171;0,03341;73,69171
0,4584;74,11457;0,03399;74,11457
0,4608;74,53535;0,03512;74,53535
0,4632;74,95368;0,03568;74,95368
0,4657;75,36956;0,03624;75,36956
0,4681;75,78253;0,03680;75,78253
0,4706;76,19306;0,03791;76,19306
0,4730;76,60115;0,03846;76,60115
0,4755;77,00737;0,03902;77,00737
0,4779;77,41185;0,04010;77,41185
0,4803;77,81458;0,04064;77,81458
0,4828;78,21580;0,04118;78,21580
0,4854;78,64612;0,04226;78,64612
0,4880;79,07469;0,04279;79,07469
0,4907;79,50163;0,04332;79,50163
0,4933;79,92717;0,04437;79,92717
0,4959;80,35132;0,04489;80,35132
0,4985;80,77407;0,04592;80,77407
0,5012;81,19485;0,04644;81,19485
0,5038;81,61399;0,04695;81,61399
0,5064;82,03150;0,04796;82,03150
0,5091;82,44797;0,04846;82,44797
0,5117;82,86350;0,04946;82,86350
0,5143;83,27846;0,04995;83,27846
0,5169;83,69306;0,05044;83,69306
0,5196;84,10743;0,05141;84,10743
0,5222;84,52157;0,05190;84,52157
0,5248;84,93559;0,05285;84,93559
0,5275;85,34985;0,05333;85,34985
0,5301;85,76433;0,05380;85,76433
0,5327;86,17940;0,05473;86,17940
0,5353;86,59470;0,05519;86,59470
0,5380;87,00977;0,05610;87,00977
0,5406;87,42438;0,05656;87,42438
0,5432;87,83852;0,05701;87,83852
0,5459;88,25230;0,05790;88,25230
0,5485;88,66551;0,05834;88,66551
0,5511;89,07825;0,05922;89,07825
0,5537;89,49006;0,05965;89,49006
0,5564;89,90106;0,06008;89,90106
0,5590;90,31077;0,06094;90,31077
0,5616;90,71956;0,06135;90,71956
0,5643;91,12741;0,06219;91,12741
0,5669;91,53445;0,06260;91,53445
0,5695;91,94079;0,06302;91,94079
0,5721;92,34620;0,06382;92,34620
0,5748;92,75044;0,06423;92,75044
0,5774;93,15329;0,06503;93,15329
0,5800;93,55439;0,06542;93,55439
0,5828;93,98238;0,06620;93,98238
0,5857;94,40851;0,06658;94,40851
0,5885;94,83254;0,06735;94,83254
0,5913;95,25494;0,06772;95,25494
0,5941;95,67548;0,06847;95,67548
0,5969;96,09381;0,06884;96,09381
0,5997;96,51016;0,06957;96,51016
0,6026;96,92488;0,06993;96,92488
0,6054;97,33797;0,07065;97,33797
0,6082;97,74955;0,07100;97,74955
0,6110;98,15996;0,07170;98,15996
0,6138;98,56921;0,07205;98,56921
0,6166;98,97730;0,07273;98,97730
0,6194;99,38387;0,07307;99,38387
0,6223;99,78869;0,07374;99,78869
0,6251;100,19201;0,07407;100,19201
0,6279;100,59404;0,07473;100,59404
0,6307;100,99514;0,07505;100,99514
0,6335;101,39555;0,07569;101,39555
0,6365;101,82191;0,07601;101,82191
0,6395;102,24768;0,07664;102,24768
0,6425;102,67300;0,07695;102,67300
0,6455;103,09807;0,07756;103,09807
0,6485;103,52397;0,07816;103,52397
0,6514;103,92437;0,07847;103,92437
0,6542;104,32606;0,07906;104,32606
0,6570;104,72890;0,07935;104,72890
0,6598;105,13268;0,07993;105,13268
0,6626;105,53693;0,08022;105,53693
0,6654;105,94129;0,08078;105,94129
0,6683;106,34530;0,08106;106,34530
0,6711;106,74733;0,08162;106,74733
0,6741;107,17043;0,08189;107,17043
0,6771;107,58352;0,08244;107,58352
0,6803;108,00674;0,08271;108,00674
0,6835;108,40749;0,08324;108,40749
0,6870;108,81895;0,08377;108,81895
0,6912;109,23111;0,08430;109,23111
0,6964;109,63268;0,08508;109,63268
0,7083;110,03483;0,08662;110,03483
0,7683;110,44059;0,09628;110,44059
0,7770;110,84146;0,09833;110,84146
0,7833;111,24407;0,09969;111,24407
0,7890;111,64867;0,10113;111,64867
0,7944;112,05594;0,10267;112,05594
0,8002;112,46682;0,10431;112,46682
0,8087;112,86722;0,10731;112,86722
1,2818;113,27565;0,66623;113,27565
1,2880;113,68246;0,67227;113,68246
1,2927;114,08973;0,67821;114,08973
1,2970;114,49106;0,68213;114,49106
1,3015;114,89682;0,68600;114,89682
1,3068;115,29920;0,69175;115,29920
1,3147;115,70159;0,69933;115,70159
1,5046;116,04449;1,30781;116,04449
1,5704;116,06695;1,92805;116,06695
1,6192;116,08255;2,52839;116,08255
1,6623;116,09233;3,12923;116,09233
1,7037;116,10304;3,73952;116,10304
1,7450;116,11258;4,36232;116,11258
1,7656;116,11665;4,67250;116,11665
1,7667;116,11689;4,67250;116,11689
