Part protocol
Network name;Part_OP10_MP-001_2020-08-26_16-05-02_0036_OK.csv
Protocol version;2.01.00

Index;Result information;Process values - curve related;Process values - EO related;Evaluation objects settings;Switch signal settings;Device information;Channel-X settings;Channel-Y settings;Cycle control settings;Evaluation settings;Trigger Y settings;Block settings;Measuring curve;Measuring points;Sequence;
Line;10;30;40;70;100;120;150;190;220;240;250;260;270;280;600;



Result information
Date;2020/08/26
Time;16:05:02
Cycle number;36
Total result;OK
Triggered switch signals
Part serial number;0036
Measuring program name;D57-Left
Measuring program number;1
Zero X offset;0,00;mm
Tara Y offset;0,0;kN









Process values - curve related
Block X;126,43;mm;XMIN-X;-0,15;mm
Block Y;7,5;kN;XMIN-Y;0,0;kN
Ref X;-;mm;XMAX-X;126,43;mm
Peak-peak X;126,58;mm;XMAX-Y;7,5;kN
Peak-peak Y;7,5;kN;YMIN-X;0,37;mm
;;;YMIN-Y;0,0;kN
;;;YMAX-X;126,43;mm
;;;YMAX-Y;7,5;kN

Process values - EO related;Result;Entry;Exit;XMIN-X;XMIN-Y;XMAX-X;XMAX-Y;YMIN-Y;YMIN-X;YMAX-Y;YMAX-X
;;;;mm;kN;mm;kN;kN;mm;kN;mm
EO-01;OK;0,7;0,7;;;;;0,7;124,50;0,7;125,47;;;;;;
EO-02;OK;126,39;126,40;126,39;4,5;126,40;5,3;;;;;;;;;;
EO-03;None;
EO-04;None;
























Evaluation objects settings;Reaction;X reference;Y-Reference;XMin;XMax;YMin;YMax;Entry;Exit;Curve part;Catch zone X;Catch zone Y
EO-01;UNI-BOX;ABSOLUTE;-;124,50;125,70;0,5;3,0;LEFT;RIGHT;ANY;+50%;+50%
EO-02;UNI-BOX;ABSOLUTE;-;125,80;127,20;4,5;5,5;BELOW;ABOVE;ANY;+50%;+50%
EO-03;OFF
EO-04;OFF

























Switch signal settings;Channel;Threshold at;;Trigger from;Reference;Latch until
Type S1;OFF
Type S2;OFF

















Device information
Device type;maXYmos BL
Device type number;5867B1011
Device serial number;5182443
Firmware version;2.3.2 (r22473-BL_v2.3.x)
-
-
-
-
-
IP Address;10.0.0.18
Network name;OP10
Profibus address;10
-
-
-
Station name;OP10
Company name;
Comment;











Channel-X settings
Use the settings from global setup;True
Sensor-X type;Â±10V
Unit;mm
Used range from;0,00;mm
Used range to;200,00;mm
Decimal places;XXXX.XX
Scaling by;Teach-In
Point 1;0,00;mm;-0,350;%
Point 2;200,00;mm;10,000;%
Invert signal;FALSE
Filter;20 Hz
Test point;0,00;mm
Tolerance;2,00;mm
Enable sensor test by dig-input;FALSE
Zoom from;110,00;mm
Zoom to;133,11;mm























Channel-Y settings
Use the settings from global setup;True
Sensor-Y type;Strain Gage
Unit;kN
Used range from;0,0;kN
Used range to;20,0;kN
Decimal places;XXXXX.X
Scaling by;Teach-In
Point 1;0,0;kN;-0,01562;%
Point 2;20,0;kN;2,00000;%
Invert signal;FALSE
Filter;1 Hz
Piezo reset;-
Test point;0,0;kN
Tolerance;0,1;kN
Enable sensor test by dig-input;FALSE
Zoom from;0,0;kN
Zoom to;6,0;kN












Cycle control settings
Use the settings from global setup;True
Measuring function;Y (X)
Delta-X;Automatic
START condition;Dig-Input
STOP condition;Dig-Input
Cycle time out;20,00;s
Turning point RIGHT;YMAX
Turning point LEFT;NONE
Cut curve at;NONE










Evaluation settings
Capture only first NOK-EO for statistics;False
Hysteresis-X;0,0;%
Hysteresis-Y;100,0;%






Trigger Y settings
Threshold;1,9;kN
Value X at TRIGGER Y;0,00;mm
Approach from;BELOW






Block settings
Value X at block;XMAX
Block at;0,00;mm







Measuring curve
Number of measuring points;316
Ref. Graph on;ABSOLUTE
Curve segments;0;316;315;316;


Time;X(ABSOLUTE);Y;X (ABSOLUTE)


s;mm;kN;mm
0,0000;-0,15036;-0,03411;-0,15036
0,0839;0,25598;-0,03420;0,25598
0,0852;0,37378;-0,03421;0,37378
0,0879;0,67175;-0,03421;0,67175
0,0907;1,08845;-0,03421;1,08845
0,0929;1,49665;-0,03421;1,49665
0,0950;1,92953;-0,03421;1,92953
0,0969;2,37183;-0,03421;2,37183
0,0986;2,80914;-0,03421;2,80914
0,1001;3,22874;-0,03421;3,22874
0,1016;3,67687;-0,03420;3,67687
0,1029;4,09217;-0,03420;4,09217
0,1042;4,52936;-0,03420;4,52936
0,1055;4,98773;-0,03420;4,98773
0,1066;5,39511;-0,03420;5,39511
0,1078;5,81263;-0,03419;5,81263
0,1089;6,23526;-0,03419;6,23526
0,1100;6,65801;-0,03419;6,65801
0,1111;7,07553;-0,03419;7,07553
0,1123;7,48384;-0,03418;7,48384
0,1136;7,94489;-0,03417;7,94489
0,1149;8,38755;-0,03417;8,38755
0,1162;8,81123;-0,03416;8,81123
0,1175;9,21664;-0,03415;9,21664
0,1190;9,65894;-0,03414;9,65894
0,1205;10,08041;-0,03414;10,08041
0,1220;10,48326;-0,03413;10,48326
0,1237;10,91800;-0,03411;10,91800
0,1254;11,33877;-0,03410;11,33877
0,1271;11,75128;-0,03409;11,75128
0,1288;12,15995;-0,03407;12,15995
0,1305;12,56711;-0,03405;12,56711
0,1322;12,97426;-0,03403;12,97426
0,1339;13,38293;-0,03403;13,38293
0,1355;13,79497;-0,03400;13,79497
0,1372;14,21132;-0,03398;14,21132
0,1389;14,63198;-0,03396;14,63198
0,1406;15,05636;-0,03393;15,05636
0,1423;15,48388;-0,03389;15,48388
0,1440;15,91443;-0,03386;15,91443
0,1457;16,34801;-0,03383;16,34801
0,1474;16,78449;-0,03379;16,78449
0,1491;17,22319;-0,03375;17,22319
0,1508;17,66329;-0,03375;17,66329
0,1524;18,10489;-0,03371;18,10489
0,1541;18,54813;-0,03366;18,54813
0,1558;18,99311;-0,03361;18,99311
0,1575;19,43984;-0,03357;19,43984
0,1592;19,88750;-0,03351;19,88750
0,1609;20,33598;-0,03347;20,33598
0,1626;20,78550;-0,03341;20,78550
0,1641;21,18637;-0,03335;21,18637
0,1656;21,58875;-0,03335;21,58875
0,1671;21,99230;-0,03329;21,99230
0,1686;22,39654;-0,03323;22,39654
0,1701;22,80090;-0,03316;22,80090
0,1716;23,20538;-0,03309;23,20538
0,1731;23,61009;-0,03309;23,61009
0,1746;24,01538;-0,03302;24,01538
0,1761;24,42126;-0,03295;24,42126
0,1776;24,82725;-0,03287;24,82725
0,1791;25,23289;-0,03279;25,23289
0,1806;25,63806;-0,03279;25,63806
0,1821;26,04277;-0,03272;26,04277
0,1836;26,44713;-0,03263;26,44713
0,1851;26,85150;-0,03254;26,85150
0,1866;27,25586;-0,03246;27,25586
0,1881;27,65987;-0,03246;27,65987
0,1896;28,06283;-0,03236;28,06283
0,1911;28,46475;-0,03227;28,46475
0,1926;28,86527;-0,03218;28,86527
0,1943;29,31444;-0,03208;29,31444
0,1960;29,76199;-0,03198;29,76199
0,1977;30,20767;-0,03198;30,20767
0,1994;30,65114;-0,03187;30,65114
0,2011;31,09205;-0,03177;31,09205
0,2028;31,53028;-0,03167;31,53028
0,2044;31,96583;-0,03156;31,96583
0,2061;32,39871;-0,03145;32,39871
0,2078;32,82903;-0,03134;32,82903
0,2095;33,25679;-0,03122;33,25679
0,2112;33,68198;-0,03110;33,68198
0,2129;34,10485;-0,03099;34,10485
0,2146;34,52539;-0,03099;34,52539
0,2163;34,94372;-0,03086;34,94372
0,2180;35,35983;-0,03074;35,35983
0,2197;35,77362;-0,03062;35,77362
0,2213;36,18497;-0,03049;36,18497
0,2230;36,59387;-0,03036;36,59387
0,2247;37,00056;-0,03023;37,00056
0,2264;37,40492;-0,03010;37,40492
0,2281;37,80707;-0,02996;37,80707
0,2298;38,20712;-0,02983;38,20712
0,2317;38,64896;-0,02969;38,64896
0,2335;39,08836;-0,02955;39,08836
0,2354;39,52543;-0,02941;39,52543
0,2373;39,96028;-0,02926;39,96028
0,2392;40,39339;-0,02912;40,39339
0,2411;40,82511;-0,02898;40,82511
0,2429;41,25554;-0,02884;41,25554
0,2448;41,68458;-0,02869;41,68458
0,2467;42,11222;-0,02854;42,11222
0,2486;42,53811;-0,02839;42,53811
0,2504;42,96226;-0,02825;42,96226
0,2523;43,38420;-0,02809;43,38420
0,2542;43,80404;-0,02794;43,80404
0,2561;44,22179;-0,02778;44,22179
0,2580;44,63744;-0,02763;44,63744
0,2598;45,05146;-0,02748;45,05146
0,2617;45,46408;-0,02732;45,46408
0,2636;45,87520;-0,02716;45,87520
0,2655;46,28503;-0,02700;46,28503
0,2673;46,69346;-0,02684;46,69346
0,2692;47,10015;-0,02668;47,10015
0,2711;47,50498;-0,02652;47,50498
0,2730;47,90806;-0,02636;47,90806
0,2749;48,30939;-0,02620;48,30939
0,2767;48,70945;-0,02603;48,70945
0,2788;49,14849;-0,02588;49,14849
0,2809;49,58661;-0,02571;49,58661
0,2829;50,02391;-0,02554;50,02391
0,2850;50,46051;-0,02538;50,46051
0,2871;50,89618;-0,02521;50,89618
0,2891;51,33069;-0,02505;51,33069
0,2912;51,76392;-0,02488;51,76392
0,2933;52,19610;-0,02472;52,19610
0,2953;52,62711;-0,02454;52,62711
0,2974;53,05720;-0,02421;53,05720
0,2994;53,48658;-0,02404;53,48658
0,3015;53,91527;-0,02388;53,91527
0,3036;54,34338;-0,02371;54,34338
0,3056;54,77044;-0,02353;54,77044
0,3077;55,19656;-0,02337;55,19656
0,3098;55,62129;-0,02320;55,62129
0,3118;56,04463;-0,02302;56,04463
0,3139;56,46680;-0,02286;56,46680
0,3160;56,88768;-0,02269;56,88768
0,3180;57,30753;-0,02235;57,30753
0,3201;57,72655;-0,02217;57,72655
0,3222;58,14476;-0,02201;58,14476
0,3242;58,56216;-0,02184;58,56216
0,3263;58,97851;-0,02166;58,97851
0,3284;59,39370;-0,02150;59,39370
0,3304;59,80725;-0,02132;59,80725
0,3325;60,21930;-0,02115;60,21930
0,3346;60,62994;-0,02098;60,62994
0,3366;61,03919;-0,02081;61,03919
0,3387;61,44728;-0,02047;61,44728
0,3407;61,85455;-0,02030;61,85455
0,3428;62,26089;-0,02013;62,26089
0,3449;62,66618;-0,01996;62,66618
0,3469;63,07031;-0,01978;63,07031
0,3490;63,47316;-0,01962;63,47316
0,3511;63,87449;-0,01945;63,87449
0,3531;64,27454;-0,01928;64,27454
0,3554;64,70940;-0,01911;64,70940
0,3576;65,14274;-0,01877;65,14274
0,3599;65,57458;-0,01860;65,57458
0,3622;66,00489;-0,01843;66,00489
0,3644;66,43381;-0,01827;66,43381
0,3667;66,86134;-0,01809;66,86134
0,3689;67,28758;-0,01776;67,28758
0,3712;67,71243;-0,01759;67,71243
0,3734;68,13599;-0,01742;68,13599
0,3757;68,55816;-0,01725;68,55816
0,3779;68,97894;-0,01708;68,97894
0,3802;69,39866;-0,01675;69,39866
0,3824;69,81734;-0,01658;69,81734
0,3847;70,23520;-0,01641;70,23520
0,3869;70,65237;-0,01625;70,65237
0,3892;71,06860;-0,01608;71,06860
0,3914;71,48390;-0,01576;71,48390
0,3937;71,89792;-0,01559;71,89792
0,3959;72,31066;-0,01542;72,31066
0,3982;72,72236;-0,01526;72,72236
0,4005;73,13300;-0,01509;73,13300
0,4027;73,54284;-0,01477;73,54284
0,4050;73,95197;-0,01460;73,95197
0,4072;74,36064;-0,01444;74,36064
0,4095;74,76872;-0,01428;74,76872
0,4117;75,17611;-0,01411;75,17611
0,4140;75,58291;-0,01379;75,58291
0,4162;75,98902;-0,01363;75,98902
0,4185;76,39431;-0,01346;76,39431
0,4207;76,79867;-0,01330;76,79867
0,4230;77,20199;-0,01314;77,20199
0,4252;77,60402;-0,01282;77,60402
0,4275;78,00500;-0,01266;78,00500
0,4299;78,43800;-0,01250;78,43800
0,4324;78,86971;-0,01234;78,86971
0,4348;79,30003;-0,01202;79,30003
0,4372;79,72907;-0,01186;79,72907
0,4397;80,15694;-0,01170;80,15694
0,4421;80,58388;-0,01139;80,58388
0,4446;81,00978;-0,01123;81,00978
0,4470;81,43439;-0,01106;81,43439
0,4495;81,85737;-0,01075;81,85737
0,4519;82,27885;-0,01059;82,27885
0,4543;82,69845;-0,01043;82,69845
0,4568;83,11608;-0,01028;83,11608
0,4592;83,53197;-0,00997;83,53197
0,4617;83,94587;-0,00981;83,94587
0,4641;84,35815;-0,00966;84,35815
0,4665;84,76880;-0,00934;84,76880
0,4690;85,17828;-0,00919;85,17828
0,4714;85,58648;-0,00904;85,58648
0,4739;85,99340;-0,00872;85,99340
0,4763;86,39904;-0,00857;86,39904
0,4787;86,80317;-0,00842;86,80317
0,4812;87,20590;-0,00826;87,20590
0,4836;87,60712;-0,00795;87,60712
0,4862;88,03779;-0,00781;88,03779
0,4889;88,46694;-0,00750;88,46694
0,4915;88,89481;-0,00734;88,89481
0,4941;89,32141;-0,00720;89,32141
0,4968;89,74672;-0,00689;89,74672
0,4994;90,17063;-0,00673;90,17063
0,5020;90,59338;-0,00644;90,59338
0,5046;91,01486;-0,00628;91,01486
0,5073;91,43540;-0,00613;91,43540
0,5099;91,85547;-0,00583;91,85547
0,5125;92,27519;-0,00568;92,27519
0,5152;92,69457;-0,00538;92,69457
0,5178;93,11313;-0,00522;93,11313
0,5204;93,53041;-0,00508;93,53041
0,5230;93,94630;-0,00478;93,94630
0,5257;94,36055;-0,00463;94,36055
0,5283;94,77341;-0,00433;94,77341
0,5309;95,18534;-0,00418;95,18534
0,5336;95,59633;-0,00403;95,59633
0,5362;96,00663;-0,00373;96,00663
0,5388;96,41599;-0,00358;96,41599
0,5414;96,82431;-0,00329;96,82431
0,5441;97,23193;-0,00314;97,23193
0,5467;97,63862;-0,00299;97,63862
0,5493;98,04438;-0,00270;98,04438
0,5520;98,44932;-0,00255;98,44932
0,5546;98,85345;-0,00225;98,85345
0,5572;99,25653;-0,00210;99,25653
0,5598;99,65880;-0,00196;99,65880
0,5625;100,06036;-0,00166;100,06036
0,5651;100,46135;-0,00152;100,46135
0,5677;100,86140;-0,00122;100,86140
0,5705;101,28893;-0,00108;101,28893
0,5734;101,71494;-0,00078;101,71494
0,5762;102,13955;-0,00063;102,13955
0,5790;102,56277;-0,00034;102,56277
0,5818;102,98494;-0,00020;102,98494
0,5846;103,40571;0,00010;103,40571
0,5874;103,82346;0,00024;103,82346
0,5903;104,23655;0,00053;104,23655
0,5931;104,64428;0,00068;104,64428
0,5959;105,04667;0,00097;105,04667
0,5989;105,47058;0,00112;105,47058
0,6019;105,88868;0,00140;105,88868
0,6049;106,30049;0,00155;106,30049
0,6079;106,70461;0,00185;106,70461
0,6111;107,12446;0,00214;107,12446
0,6143;107,53382;0,00228;107,53382
0,6177;107,95669;0,00258;107,95669
0,6210;108,37071;0,00288;108,37071
0,6244;108,77891;0,00317;108,77891
0,6278;109,18455;0,00347;109,18455
0,6312;109,59066;0,00362;109,59066
0,6346;109,99921;0,00392;109,99921
0,6379;110,41184;0,00422;110,41184
0,6413;110,82924;0,00453;110,82924
0,6447;111,25175;0,00484;111,25175
0,6479;111,65553;0,00500;111,65553
0,6511;112,06327;0,00531;112,06327
0,6543;112,47333;0,00563;112,47333
0,6575;112,88445;0,00579;112,88445
0,6607;113,29509;0,00612;113,29509
0,6639;113,70446;0,00645;113,70446
0,6670;114,11243;0,00662;114,11243
0,6702;114,51935;0,00695;114,51935
0,6734;114,92534;0,00729;114,92534
0,6766;115,32923;0,00764;115,32923
0,6798;115,73022;0,00782;115,73022
0,6832;116,15285;0,00818;116,15285
0,6864;116,55314;0,00855;116,55314
0,6896;116,95808;0,00874;116,95808
0,6928;117,36954;0,00912;117,36954
0,6960;117,77623;0,00950;117,77623
0,6995;118,17955;0,00989;118,17955
0,7046;118,58181;0,01029;118,58181
0,9398;118,98187;0,15076;118,98187
1,2671;119,38774;0,64363;119,38774
1,2714;119,79001;0,64818;119,79001
1,2749;120,19099;0,65268;120,19099
1,2785;120,60001;0,65714;120,60001
1,2823;121,00751;0,66154;121,00751
1,2864;121,41304;0,66590;121,41304
1,2915;121,81891;0,67236;121,81891
1,2994;122,22013;0,68085;122,22013
1,3091;122,62402;0,69127;122,62402
1,3164;123,03188;0,69952;123,03188
1,3219;123,44264;0,70568;123,44264
1,3270;123,84653;0,71182;123,84653
1,3324;124,25066;0,71796;124,25066
1,3384;124,66212;0,72412;124,66212
1,3461;125,06777;0,73239;125,06777
1,3553;125,47410;0,74285;125,47410
1,3634;125,87940;0,75136;125,87940
1,5173;126,27945;1,07828;126,27945
1,6228;126,31984;1,68338;126,31984
1,6942;126,34114;2,28553;126,34114
1,7542;126,35616;2,89480;126,35616
1,8087;126,36838;3,50264;126,36838
1,8613;126,37920;4,11605;126,37920
1,9138;126,39131;4,73476;126,39131
1,9664;126,39887;5,34184;126,39887
2,0208;126,40690;5,94511;126,40690
2,0790;126,41529;6,55179;126,41529
2,1429;126,42402;7,16639;126,42402
2,1748;126,42658;7,45348;126,42658
