Part protocol
Network name;Part_OP10_MP-002_2020-08-26_16-06-31_0037_OK.csv
Protocol version;2.01.00

Index;Result information;Process values - curve related;Process values - EO related;Evaluation objects settings;Switch signal settings;Device information;Channel-X settings;Channel-Y settings;Cycle control settings;Evaluation settings;Trigger Y settings;Block settings;Measuring curve;Measuring points;Sequence;
Line;10;30;40;70;100;120;150;190;220;240;250;260;270;280;570;



Result information
Date;2020/08/26
Time;16:06:31
Cycle number;37
Total result;OK
Triggered switch signals
Part serial number;0037
Measuring program name;D57-Right
Measuring program number;2
Zero X offset;0,00;mm
Tara Y offset;0,0;kN









Process values - curve related
Block X;116,09;mm;XMIN-X;0,05;mm
Block Y;4,8;kN;XMIN-Y;0,0;kN
Ref X;-;mm;XMAX-X;116,09;mm
Peak-peak X;116,04;mm;XMAX-Y;4,8;kN
Peak-peak Y;4,8;kN;YMIN-X;0,45;mm
;;;YMIN-Y;0,0;kN
;;;YMAX-X;116,09;mm
;;;YMAX-Y;4,8;kN

Process values - EO related;Result;Entry;Exit;XMIN-X;XMIN-Y;XMAX-X;XMAX-Y;YMIN-Y;YMIN-X;YMAX-Y;YMAX-X
;;;;mm;kN;mm;kN;kN;mm;kN;mm
EO-01;OK;0,7;0,7;;;;;0,7;115,00;0,7;115,33;;;;;;
EO-02;OK;;116,07;116,05;2,3;116,07;3,1;2,3;116,05;;;;;;;;
EO-03;None;
EO-04;None;
























Evaluation objects settings;Reaction;X reference;Y-Reference;XMin;XMax;YMin;YMax;Entry;Exit;Curve part;Catch zone X;Catch zone Y
EO-01;UNI-BOX;ABSOLUTE;-;115,00;115,50;0,4;2,0;LEFT;RIGHT;ANY;+50%;+50%
EO-02;UNI-BOX;ABSOLUTE;-;115,40;117,10;2,3;3,3;ANY;ABOVE;ANY;+50%;+50%
EO-03;OFF
EO-04;OFF

























Switch signal settings;Channel;Threshold at;;Trigger from;Reference;Latch until
Type S1;OFF
Type S2;OFF

















Device information
Device type;maXYmos BL
Device type number;5867B1011
Device serial number;5182443
Firmware version;2.3.2 (r22473-BL_v2.3.x)
-
-
-
-
-
IP Address;10.0.0.18
Network name;OP10
Profibus address;10
-
-
-
Station name;OP10
Company name;
Comment;











Channel-X settings
Use the settings from global setup;True
Sensor-X type;Â±10V
Unit;mm
Used range from;0,00;mm
Used range to;200,00;mm
Decimal places;XXXX.XX
Scaling by;Teach-In
Point 1;0,00;mm;-0,350;%
Point 2;200,00;mm;10,000;%
Invert signal;FALSE
Filter;20 Hz
Test point;0,00;mm
Tolerance;2,00;mm
Enable sensor test by dig-input;FALSE
Zoom from;100,00;mm
Zoom to;120,00;mm























Channel-Y settings
Use the settings from global setup;True
Sensor-Y type;Strain Gage
Unit;kN
Used range from;0,0;kN
Used range to;20,0;kN
Decimal places;XXXXX.X
Scaling by;Teach-In
Point 1;0,0;kN;-0,01562;%
Point 2;20,0;kN;2,00000;%
Invert signal;FALSE
Filter;1 Hz
Piezo reset;-
Test point;0,0;kN
Tolerance;0,1;kN
Enable sensor test by dig-input;FALSE
Zoom from;0,0;kN
Zoom to;5,0;kN












Cycle control settings
Use the settings from global setup;True
Measuring function;Y (X)
Delta-X;Automatic
START condition;Dig-Input
STOP condition;Dig-Input
Cycle time out;20,00;s
Turning point RIGHT;YMAX
Turning point LEFT;NONE
Cut curve at;NONE










Evaluation settings
Capture only first NOK-EO for statistics;False
Hysteresis-X;0,0;%
Hysteresis-Y;100,0;%






Trigger Y settings
Threshold;1,8;kN
Value X at TRIGGER Y;0,00;mm
Approach from;BELOW






Block settings
Value X at block;XMAX
Block at;0,00;mm







Measuring curve
Number of measuring points;287
Ref. Graph on;ABSOLUTE
Curve segments;0;286;285;287;


Time;X(ABSOLUTE);Y;X (ABSOLUTE)


s;mm;kN;mm
0,0000;0,04693;-0,03499;0,04693
0,1090;0,44873;-0,03500;0,44873
0,1124;0,86660;-0,03499;0,86660
0,1148;1,30087;-0,03499;1,30087
0,1167;1,71582;-0,03498;1,71582
0,1184;2,15010;-0,03498;2,15010
0,1199;2,58100;-0,03498;2,58100
0,1212;2,98617;-0,03498;2,98617
0,1225;3,40986;-0,03497;3,40986
0,1238;3,84355;-0,03496;3,84355
0,1251;4,27992;-0,03496;4,27992
0,1264;4,71396;-0,03495;4,71396
0,1278;5,14195;-0,03494;5,14195
0,1291;5,56133;-0,03494;5,56133
0,1304;5,96999;-0,03492;5,96999
0,1319;6,42289;-0,03490;6,42289
0,1334;6,86101;-0,03488;6,86101
0,1349;7,28644;-0,03485;7,28644
0,1364;7,70174;-0,03485;7,70174
0,1379;8,10948;-0,03484;8,10948
0,1394;8,51186;-0,03481;8,51186
0,1411;8,96068;-0,03477;8,96068
0,1428;9,40834;-0,03474;9,40834
0,1445;9,85693;-0,03470;9,85693
0,1460;10,25769;-0,03470;10,25769
0,1475;10,66100;-0,03466;10,66100
0,1490;11,06711;-0,03461;11,06711
0,1505;11,47566;-0,03457;11,47566
0,1520;11,88607;-0,03451;11,88607
0,1535;12,29753;-0,03451;12,29753
0,1550;12,70923;-0,03446;12,70923
0,1565;13,12034;-0,03439;13,12034
0,1580;13,52970;-0,03433;13,52970
0,1595;13,93674;-0,03425;13,93674
0,1610;14,34064;-0,03425;14,34064
0,1625;14,74092;-0,03418;14,74092
0,1642;15,18637;-0,03410;15,18637
0,1659;15,62647;-0,03401;15,62647
0,1676;16,06086;-0,03393;16,06086
0,1692;16,48943;-0,03383;16,48943
0,1709;16,91206;-0,03373;16,91206
0,1726;17,32865;-0,03362;17,32865
0,1743;17,73953;-0,03352;17,73953
0,1760;18,14482;-0,03352;18,14482
0,1777;18,54499;-0,03340;18,54499
0,1796;18,98427;-0,03328;18,98427
0,1815;19,41866;-0,03316;19,41866
0,1833;19,84863;-0,03302;19,84863
0,1852;20,27475;-0,03289;20,27475
0,1871;20,69762;-0,03274;20,69762
0,1890;21,11770;-0,03260;21,11770
0,1908;21,53521;-0,03245;21,53521
0,1927;21,95098;-0,03228;21,95098
0,1946;22,36523;-0,03212;22,36523
0,1965;22,77832;-0,03195;22,77832
0,1983;23,19048;-0,03177;23,19048
0,2002;23,60183;-0,03159;23,60183
0,2021;24,01247;-0,03140;24,01247
0,2040;24,42277;-0,03121;24,42277
0,2059;24,83260;-0,03100;24,83260
0,2077;25,24220;-0,03079;25,24220
0,2096;25,65180;-0,03058;25,65180
0,2115;26,06128;-0,03036;26,06128
0,2134;26,47088;-0,03013;26,47088
0,2152;26,88048;-0,02990;26,88048
0,2171;27,29031;-0,02966;27,29031
0,2190;27,70049;-0,02942;27,70049
0,2209;28,11114;-0,02917;28,11114
0,2228;28,52236;-0,02891;28,52236
0,2246;28,93394;-0,02864;28,93394
0,2265;29,34599;-0,02837;29,34599
0,2284;29,75826;-0,02810;29,75826
0,2303;30,17077;-0,02782;30,17077
0,2321;30,58351;-0,02752;30,58351
0,2340;30,99649;-0,02723;30,99649
0,2359;31,40993;-0,02693;31,40993
0,2378;31,82360;-0,02663;31,82360
0,2397;32,23762;-0,02631;32,23762
0,2415;32,65187;-0,02599;32,65187
0,2434;33,06636;-0,02566;33,06636
0,2453;33,48096;-0,02533;33,48096
0,2472;33,89557;-0,02499;33,89557
0,2490;34,31017;-0,02464;34,31017
0,2509;34,72454;-0,02429;34,72454
0,2528;35,13868;-0,02393;35,13868
0,2547;35,55224;-0,02357;35,55224
0,2565;35,96510;-0,02320;35,96510
0,2584;36,37702;-0,02282;36,37702
0,2603;36,78790;-0,02244;36,78790
0,2622;37,19797;-0,02205;37,19797
0,2641;37,60721;-0,02166;37,60721
0,2659;38,01553;-0,02127;38,01553
0,2678;38,42292;-0,02086;38,42292
0,2697;38,82949;-0,02045;38,82949
0,2716;39,23478;-0,02003;39,23478
0,2734;39,63891;-0,01961;39,63891
0,2753;40,04176;-0,01918;40,04176
0,2772;40,44333;-0,01875;40,44333
0,2791;40,84350;-0,01831;40,84350
0,2811;41,28196;-0,01787;41,28196
0,2832;41,71868;-0,01697;41,71868
0,2853;42,15366;-0,01652;42,15366
0,2873;42,58700;-0,01604;42,58700
0,2894;43,01906;-0,01558;43,01906
0,2915;43,44996;-0,01511;43,44996
0,2935;43,87993;-0,01463;43,87993
0,2956;44,30920;-0,01415;44,30920
0,2977;44,73800;-0,01367;44,73800
0,2997;45,16646;-0,01318;45,16646
0,3018;45,59480;-0,01268;45,59480
0,3039;46,02302;-0,01167;46,02302
0,3059;46,45101;-0,01116;46,45101
0,3080;46,87876;-0,01065;46,87876
0,3101;47,30606;-0,01013;47,30606
0,3121;47,73300;-0,00961;47,73300
0,3142;48,15924;-0,00908;48,15924
0,3162;48,58490;-0,00856;48,58490
0,3183;49,01010;-0,00803;49,01010
0,3204;49,43471;-0,00749;49,43471
0,3224;49,85863;-0,00695;49,85863
0,3245;50,28196;-0,00586;50,28196
0,3266;50,70436;-0,00532;50,70436
0,3286;51,12607;-0,00476;51,12607
0,3307;51,54696;-0,00421;51,54696
0,3328;51,96715;-0,00365;51,96715
0,3348;52,38652;-0,00309;52,38652
0,3369;52,80508;-0,00252;52,80508
0,3390;53,22248;-0,00196;53,22248
0,3410;53,63848;-0,00139;53,63848
0,3431;54,05285;-0,00082;54,05285
0,3452;54,46559;0,00033;54,46559
0,3472;54,87682;0,00091;54,87682
0,3493;55,28630;0,00150;55,28630
0,3514;55,69427;0,00208;55,69427
0,3534;56,10038;0,00266;56,10038
0,3555;56,50462;0,00325;56,50462
0,3576;56,90689;0,00384;56,90689
0,3596;57,30741;0,00443;57,30741
0,3619;57,74250;0,00501;57,74250
0,3641;58,17561;0,00621;58,17561
0,3664;58,60697;0,00680;58,60697
0,3686;59,03648;0,00740;59,03648
0,3709;59,46435;0,00800;59,46435
0,3731;59,89036;0,00860;59,89036
0,3754;60,31474;0,00980;60,31474
0,3776;60,73726;0,01040;60,73726
0,3799;61,15803;0,01100;61,15803
0,3821;61,57718;0,01161;61,57718
0,3844;61,99457;0,01221;61,99457
0,3867;62,40999;0,01342;62,40999
0,3889;62,82320;0,01402;62,82320
0,3912;63,23419;0,01462;63,23419
0,3934;63,64298;0,01523;63,64298
0,3957;64,04967;0,01584;64,04967
0,3979;64,45449;0,01704;64,45449
0,4002;64,85757;0,01764;64,85757
0,4024;65,25902;0,01825;65,25902
0,4047;65,65920;0,01885;65,65920
0,4071;66,09114;0,02006;66,09114
0,4096;66,52181;0,02066;66,52181
0,4120;66,95143;0,02126;66,95143
0,4144;67,38012;0,02186;67,38012
0,4169;67,80810;0,02306;67,80810
0,4193;68,23528;0,02365;68,23528
0,4218;68,66176;0,02425;68,66176
0,4242;69,08742;0,02544;69,08742
0,4266;69,51285;0,02603;69,51285
0,4291;69,93827;0,02662;69,93827
0,4315;70,36394;0,02780;70,36394
0,4340;70,78960;0,02839;70,78960
0,4364;71,21503;0,02897;71,21503
0,4388;71,63999;0,02955;71,63999
0,4413;72,06414;0,03072;72,06414
0,4437;72,48770;0,03130;72,48770
0,4462;72,91069;0,03188;72,91069
0,4486;73,33321;0,03303;73,33321
0,4510;73,75514;0,03360;73,75514
0,4535;74,17638;0,03416;74,17638
0,4559;74,59657;0,03530;74,59657
0,4584;75,01548;0,03587;75,01548
0,4608;75,43288;0,03643;75,43288
0,4632;75,84888;0,03699;75,84888
0,4657;76,26348;0,03810;76,26348
0,4681;76,67681;0,03865;76,67681
0,4706;77,08897;0,03920;77,08897
0,4730;77,49984;0,04030;77,49984
0,4755;77,90956;0,04084;77,90956
0,4779;78,31799;0,04139;78,31799
0,4803;78,72527;0,04246;78,72527
0,4828;79,13114;0,04300;79,13114
0,4852;79,53573;0,04352;79,53573
0,4877;79,93916;0,04405;79,93916
0,4901;80,34143;0,04511;80,34143
0,4925;80,74253;0,04562;80,74253
0,4952;81,17285;0,04614;81,17285
0,4978;81,60119;0,04717;81,60119
0,5004;82,02755;0,04768;82,02755
0,5031;82,45193;0,04870;82,45193
0,5057;82,87456;0,04920;82,87456
0,5083;83,29533;0,04970;83,29533
0,5109;83,71459;0,05069;83,71459
0,5136;84,13222;0,05118;84,13222
0,5162;84,54846;0,05215;84,54846
0,5188;84,96364;0,05263;84,96364
0,5214;85,37790;0,05311;85,37790
0,5241;85,79145;0,05407;85,79145
0,5267;86,20443;0,05453;86,20443
0,5293;86,61694;0,05546;86,61694
0,5320;87,02886;0,05593;87,02886
0,5346;87,43997;0,05639;87,43997
0,5372;87,85027;0,05730;87,85027
0,5398;88,25999;0,05775;88,25999
0,5425;88,66935;0,05864;88,66935
0,5451;89,07860;0,05908;89,07860
0,5477;89,48785;0,05953;89,48785
0,5504;89,89664;0,06039;89,89664
0,5530;90,30484;0,06082;90,30484
0,5556;90,71222;0,06168;90,71222
0,5582;91,11868;0,06210;91,11868
0,5609;91,52444;0,06252;91,52444
0,5635;91,92938;0,06335;91,92938
0,5661;92,33339;0,06376;92,33339
0,5688;92,73636;0,06457;92,73636
0,5714;93,13804;0,06497;93,13804
0,5740;93,53844;0,06537;93,53844
0,5768;93,96608;0,06617;93,96608
0,5796;94,39244;0,06655;94,39244
0,5825;94,81752;0,06733;94,81752
0,5853;95,24156;0,06771;95,24156
0,5881;95,66477;0,06847;95,66477
0,5909;96,08706;0,06884;96,08706
0,5937;96,50818;0,06958;96,50818
0,5965;96,92837;0,06995;96,92837
0,5994;97,34798;0,07067;97,34798
0,6022;97,76712;0,07103;97,76712
0,6050;98,18568;0,07175;98,18568
0,6078;98,60366;0,07210;98,60366
0,6106;99,02083;0,07279;99,02083
0,6134;99,43694;0,07314;99,43694
0,6163;99,85155;0,07382;99,85155
0,6191;100,26464;0,07415;100,26464
0,6219;100,67657;0,07482;100,67657
0,6247;101,08744;0,07514;101,08744
0,6275;101,49716;0,07580;101,49716
0,6303;101,90559;0,07612;101,90559
0,6332;102,31252;0,07676;102,31252
0,6360;102,71792;0,07707;102,71792
0,6388;103,12217;0,07769;103,12217
0,6416;103,52548;0,07801;103,52548
0,6444;103,92810;0,07861;103,92810
0,6472;104,33060;0,07891;104,33060
0,6501;104,73321;0,07950;104,73321
0,6529;105,13594;0,07980;105,13594
0,6557;105,53867;0,08038;105,53867
0,6585;105,94082;0,08068;105,94082
0,6613;106,34227;0,08125;106,34227
0,6643;106,76793;0,08181;106,76793
0,6673;107,18801;0,08209;107,18801
0,6703;107,59877;0,08264;107,59877
0,6735;108,02164;0,08291;108,02164
0,6767;108,42728;0,08346;108,42728
0,6801;108,83176;0,08399;108,83176
0,6838;109,24008;0,08452;109,24008
0,6884;109,65456;0,08504;109,65456
0,6945;110,05974;0,08608;110,05974
0,7481;110,46107;0,09385;110,46107
0,7638;110,86520;0,09707;110,86520
0,7711;111,27201;0,09829;111,27201
0,7768;111,67590;0,09958;111,67590
0,7818;112,08434;0,10097;112,08434
0,7869;112,48614;0,10245;112,48614
0,7940;112,89294;0,10459;112,89294
1,2660;113,29812;0,66653;113,29812
1,2720;113,70097;0,67295;113,70097
1,2764;114,10137;0,67926;114,10137
1,2805;114,50724;0,68341;114,50724
1,2848;114,92138;0,68751;114,92138
1,2897;115,32632;0,69359;115,32632
1,2976;115,73173;0,70158;115,73173
1,4866;116,01877;1,30221;116,01877
1,5523;116,04100;1,92288;116,04100
1,6011;116,05496;2,52764;116,05496
1,6443;116,06521;3,13516;116,06521
1,6856;116,07720;3,75367;116,07720
1,7251;116,08302;4,35696;116,08302
1,7513;116,08849;4,75757;116,08849
1,7519;116,08860;4,75757;116,08860
