Part protocol
Network name;Part_OP10_MP-001_2020-08-26_10-20-13_0011_OK.csv
Protocol version;2.01.00

Index;Result information;Process values - curve related;Process values - EO related;Evaluation objects settings;Switch signal settings;Device information;Channel-X settings;Channel-Y settings;Cycle control settings;Evaluation settings;Trigger Y settings;Block settings;Measuring curve;Measuring points;Sequence;
Line;10;30;40;70;100;120;150;190;220;240;250;260;270;280;600;



Result information
Date;2020/08/26
Time;10:20:13
Cycle number;11
Total result;OK
Triggered switch signals
Part serial number;0011
Measuring program name;D57-Left
Measuring program number;1
Zero X offset;0,00;mm
Tara Y offset;0,0;kN









Process values - curve related
Block X;126,34;mm;XMIN-X;-0,19;mm
Block Y;7,4;kN;XMIN-Y;0,0;kN
Ref X;-;mm;XMAX-X;126,34;mm
Peak-peak X;126,53;mm;XMAX-Y;7,4;kN
Peak-peak Y;7,4;kN;YMIN-X;0,21;mm
;;;YMIN-Y;0,0;kN
;;;YMAX-X;126,34;mm
;;;YMAX-Y;7,4;kN

Process values - EO related;Result;Entry;Exit;XMIN-X;XMIN-Y;XMAX-X;XMAX-Y;YMIN-Y;YMIN-X;YMAX-Y;YMAX-X
;;;;mm;kN;mm;kN;kN;mm;kN;mm
EO-01;OK;0,7;0,8;;;;;0,7;124,50;0,8;125,64;;;;;;
EO-02;OK;126,30;126,31;126,30;4,5;126,31;5,0;;;;;;;;;;
EO-03;None;
EO-04;None;
























Evaluation objects settings;Reaction;X reference;Y-Reference;XMin;XMax;YMin;YMax;Entry;Exit;Curve part;Catch zone X;Catch zone Y
EO-01;UNI-BOX;ABSOLUTE;-;124,50;125,70;0,5;3,0;LEFT;RIGHT;ANY;+50%;+50%
EO-02;UNI-BOX;ABSOLUTE;-;125,80;127,20;4,5;5,5;BELOW;ABOVE;ANY;+50%;+50%
EO-03;OFF
EO-04;OFF

























Switch signal settings;Channel;Threshold at;;Trigger from;Reference;Latch until
Type S1;OFF
Type S2;OFF

















Device information
Device type;maXYmos BL
Device type number;5867B1011
Device serial number;5182443
Firmware version;2.3.2 (r22473-BL_v2.3.x)
-
-
-
-
-
IP Address;10.0.0.18
Network name;OP10
Profibus address;10
-
-
-
Station name;OP10
Company name;
Comment;











Channel-X settings
Use the settings from global setup;True
Sensor-X type;Â±10V
Unit;mm
Used range from;0,00;mm
Used range to;200,00;mm
Decimal places;XXXX.XX
Scaling by;Teach-In
Point 1;0,00;mm;-0,350;%
Point 2;200,00;mm;10,000;%
Invert signal;FALSE
Filter;20 Hz
Test point;0,00;mm
Tolerance;2,00;mm
Enable sensor test by dig-input;FALSE
Zoom from;110,00;mm
Zoom to;133,11;mm























Channel-Y settings
Use the settings from global setup;True
Sensor-Y type;Strain Gage
Unit;kN
Used range from;0,0;kN
Used range to;20,0;kN
Decimal places;XXXXX.X
Scaling by;Teach-In
Point 1;0,0;kN;-0,01562;%
Point 2;20,0;kN;2,00000;%
Invert signal;FALSE
Filter;1 Hz
Piezo reset;-
Test point;0,0;kN
Tolerance;0,1;kN
Enable sensor test by dig-input;FALSE
Zoom from;0,0;kN
Zoom to;6,0;kN












Cycle control settings
Use the settings from global setup;True
Measuring function;Y (X)
Delta-X;Automatic
START condition;Dig-Input
STOP condition;Dig-Input
Cycle time out;20,00;s
Turning point RIGHT;YMAX
Turning point LEFT;NONE
Cut curve at;NONE










Evaluation settings
Capture only first NOK-EO for statistics;False
Hysteresis-X;0,0;%
Hysteresis-Y;100,0;%






Trigger Y settings
Threshold;1,9;kN
Value X at TRIGGER Y;0,00;mm
Approach from;BELOW






Block settings
Value X at block;XMAX
Block at;0,00;mm







Measuring curve
Number of measuring points;316
Ref. Graph on;ABSOLUTE
Curve segments;0;315;314;316;


Time;X(ABSOLUTE);Y;X (ABSOLUTE)


s;mm;kN;mm
0,0000;-0,19459;-0,03560;-0,19459
0,0974;0,21198;-0,03569;0,21198
0,1013;0,62310;-0,03569;0,62310
0,1041;1,03409;-0,03569;1,03409
0,1064;1,43612;-0,03569;1,43612
0,1085;1,86237;-0,03569;1,86237
0,1103;2,29781;-0,03568;2,29781
0,1120;2,72847;-0,03568;2,72847
0,1135;3,14191;-0,03568;3,14191
0,1150;3,58387;-0,03568;3,58387
0,1164;3,99358;-0,03568;3,99358
0,1177;4,42495;-0,03568;4,42495
0,1190;4,87727;-0,03567;4,87727
0,1201;5,28011;-0,03567;5,28011
0,1212;5,69367;-0,03567;5,69367
0,1224;6,11386;-0,03566;6,11386
0,1235;6,53545;-0,03566;6,53545
0,1246;6,95343;-0,03566;6,95343
0,1257;7,36326;-0,03566;7,36326
0,1271;7,82698;-0,03565;7,82698
0,1284;8,27290;-0,03564;8,27290
0,1297;8,70019;-0,03564;8,70019
0,1310;9,10967;-0,03563;9,10967
0,1325;9,55698;-0,03562;9,55698
0,1340;9,98392;-0,03561;9,98392
0,1355;10,39236;-0,03560;10,39236
0,1372;10,83257;-0,03560;10,83257
0,1389;11,25765;-0,03559;11,25765
0,1406;11,67341;-0,03558;11,67341
0,1423;12,08453;-0,03556;12,08453
0,1440;12,49401;-0,03554;12,49401
0,1456;12,90314;-0,03552;12,90314
0,1473;13,31297;-0,03549;13,31297
0,1490;13,72502;-0,03547;13,72502
0,1507;14,14102;-0,03545;14,14102
0,1524;14,56156;-0,03542;14,56156
0,1541;14,98652;-0,03542;14,98652
0,1558;15,41497;-0,03539;15,41497
0,1575;15,84634;-0,03535;15,84634
0,1592;16,28085;-0,03533;16,28085
0,1608;16,71850;-0,03529;16,71850
0,1625;17,15929;-0,03525;17,15929
0,1642;17,60241;-0,03521;17,60241
0,1659;18,04728;-0,03517;18,04728
0,1676;18,49389;-0,03512;18,49389
0,1693;18,94248;-0,03508;18,94248
0,1708;19,34288;-0,03508;19,34288
0,1723;19,74480;-0,03502;19,74480
0,1738;20,14765;-0,03498;20,14765
0,1753;20,55131;-0,03492;20,55131
0,1768;20,95579;-0,03486;20,95579
0,1783;21,36131;-0,03486;21,36131
0,1798;21,76812;-0,03480;21,76812
0,1813;22,17586;-0,03473;22,17586
0,1828;22,58417;-0,03467;22,58417
0,1843;22,99261;-0,03460;22,99261
0,1858;23,40093;-0,03460;23,40093
0,1873;23,80936;-0,03454;23,80936
0,1888;24,21815;-0,03447;24,21815
0,1903;24,62739;-0,03439;24,62739
0,1918;25,03699;-0,03432;25,03699
0,1933;25,44636;-0,03432;25,44636
0,1948;25,85503;-0,03423;25,85503
0,1963;26,26311;-0,03415;26,26311
0,1978;26,67085;-0,03407;26,67085
0,1993;27,07835;-0,03398;27,07835
0,2008;27,48586;-0,03398;27,48586
0,2023;27,89278;-0,03389;27,89278
0,2038;28,29853;-0,03380;28,29853
0,2053;28,70278;-0,03371;28,70278
0,2068;29,10539;-0,03360;29,10539
0,2083;29,50626;-0,03360;29,50626
0,2100;29,95532;-0,03350;29,95532
0,2117;30,40193;-0,03340;30,40193
0,2134;30,84598;-0,03330;30,84598
0,2151;31,28701;-0,03320;31,28701
0,2168;31,72513;-0,03309;31,72513
0,2185;32,16045;-0,03298;32,16045
0,2202;32,59356;-0,03286;32,59356
0,2219;33,02434;-0,03275;33,02434
0,2236;33,45291;-0,03275;33,45291
0,2252;33,87881;-0,03263;33,87881
0,2269;34,30214;-0,03251;34,30214
0,2286;34,72303;-0,03239;34,72303
0,2303;35,14136;-0,03227;35,14136
0,2320;35,55713;-0,03214;35,55713
0,2337;35,97033;-0,03202;35,97033
0,2354;36,38051;-0,03189;36,38051
0,2371;36,78802;-0,03176;36,78802
0,2388;37,19273;-0,03162;37,19273
0,2404;37,59476;-0,03162;37,59476
0,2423;38,03835;-0,03149;38,03835
0,2442;38,47914;-0,03136;38,47914
0,2461;38,91726;-0,03123;38,91726
0,2480;39,35316;-0,03109;39,35316
0,2498;39,78709;-0,03095;39,78709
0,2517;40,21926;-0,03080;40,21926
0,2536;40,64947;-0,03066;40,64947
0,2555;41,07804;-0,03052;41,07804
0,2573;41,50463;-0,03037;41,50463
0,2592;41,92959;-0,03023;41,92959
0,2611;42,35258;-0,03008;42,35258
0,2630;42,77393;-0,02993;42,77393
0,2649;43,19389;-0,02978;43,19389
0,2667;43,61233;-0,02962;43,61233
0,2686;44,02961;-0,02948;44,02961
0,2705;44,44550;-0,02932;44,44550
0,2724;44,86022;-0,02917;44,86022
0,2742;45,27389;-0,02901;45,27389
0,2761;45,68663;-0,02886;45,68663
0,2780;46,09833;-0,02870;46,09833
0,2799;46,50874;-0,02854;46,50874
0,2818;46,91752;-0,02838;46,91752
0,2836;47,32480;-0,02823;47,32480
0,2855;47,73032;-0,02807;47,73032
0,2874;48,13433;-0,02790;48,13433
0,2893;48,53695;-0,02775;48,53695
0,2911;48,93828;-0,02758;48,93828
0,2930;49,33845;-0,02742;49,33845
0,2951;49,77738;-0,02709;49,77738
0,2971;50,21503;-0,02692;50,21503
0,2992;50,65140;-0,02676;50,65140
0,3013;51,08719;-0,02660;51,08719
0,3033;51,52251;-0,02643;51,52251
0,3054;51,95772;-0,02626;51,95772
0,3075;52,39257;-0,02610;52,39257
0,3095;52,82708;-0,02593;52,82708
0,3116;53,26054;-0,02576;53,26054
0,3137;53,69272;-0,02559;53,69272
0,3157;54,12339;-0,02526;54,12339
0,3178;54,55266;-0,02509;54,55266
0,3199;54,98041;-0,02491;54,98041
0,3219;55,40712;-0,02475;55,40712
0,3240;55,83232;-0,02458;55,83232
0,3261;56,25623;-0,02440;56,25623
0,3281;56,67852;-0,02424;56,67852
0,3302;57,09929;-0,02406;57,09929
0,3323;57,51867;-0,02389;57,51867
0,3343;57,93642;-0,02373;57,93642
0,3364;58,35300;-0,02339;58,35300
0,3384;58,76830;-0,02321;58,76830
0,3405;59,18255;-0,02304;59,18255
0,3426;59,59541;-0,02287;59,59541
0,3446;60,00699;-0,02270;60,00699
0,3467;60,41705;-0,02252;60,41705
0,3488;60,82561;-0,02236;60,82561
0,3508;61,23276;-0,02218;61,23276
0,3529;61,63863;-0,02202;61,63863
0,3550;62,04323;-0,02184;62,04323
0,3570;62,44666;-0,02150;62,44666
0,3591;62,84904;-0,02133;62,84904
0,3612;63,25037;-0,02115;63,25037
0,3632;63,65078;-0,02099;63,65078
0,3655;64,08656;-0,02082;64,08656
0,3677;64,52119;-0,02065;64,52119
0,3700;64,95453;-0,02048;64,95453
0,3722;65,38648;-0,02014;65,38648
0,3745;65,81703;-0,01997;65,81703
0,3767;66,24618;-0,01979;66,24618
0,3790;66,67394;-0,01963;66,67394
0,3813;67,10030;-0,01946;67,10030
0,3835;67,52549;-0,01912;67,52549
0,3858;67,94953;-0,01895;67,94953
0,3880;68,37216;-0,01878;68,37216
0,3903;68,79340;-0,01861;68,79340
0,3925;69,21324;-0,01844;69,21324
0,3948;69,63215;-0,01811;69,63215
0,3970;70,05036;-0,01794;70,05036
0,3993;70,46811;-0,01778;70,46811
0,4015;70,88539;-0,01761;70,88539
0,4038;71,30209;-0,01744;71,30209
0,4060;71,71774;-0,01711;71,71774
0,4083;72,13234;-0,01694;72,13234
0,4105;72,54578;-0,01678;72,54578
0,4128;72,95829;-0,01661;72,95829
0,4150;73,37010;-0,01644;73,37010
0,4173;73,78133;-0,01611;73,78133
0,4196;74,19209;-0,01594;74,19209
0,4218;74,60239;-0,01579;74,60239
0,4241;75,01187;-0,01562;75,01187
0,4263;75,42042;-0,01545;75,42042
0,4286;75,82816;-0,01513;75,82816
0,4308;76,23508;-0,01496;76,23508
0,4331;76,64154;-0,01479;76,64154
0,4353;77,04741;-0,01463;77,04741
0,4376;77,45259;-0,01447;77,45259
0,4398;77,85718;-0,01415;77,85718
0,4421;78,26073;-0,01398;78,26073
0,4443;78,66334;-0,01382;78,66334
0,4466;79,06468;-0,01366;79,06468
0,4488;79,46485;-0,01349;79,46485
0,4513;79,89691;-0,01318;79,89691
0,4537;80,32723;-0,01301;80,32723
0,4562;80,75580;-0,01285;80,75580
0,4586;81,18239;-0,01253;81,18239
0,4610;81,60724;-0,01237;81,60724
0,4635;82,03022;-0,01220;82,03022
0,4659;82,45146;-0,01189;82,45146
0,4684;82,87107;-0,01172;82,87107
0,4708;83,28882;-0,01156;83,28882
0,4732;83,70493;-0,01141;83,70493
0,4757;84,11942;-0,01108;84,11942
0,4781;84,53239;-0,01093;84,53239
0,4806;84,94397;-0,01077;84,94397
0,4830;85,35404;-0,01045;85,35404
0,4855;85,76270;-0,01029;85,76270
0,4879;86,16986;-0,01013;86,16986
0,4903;86,57527;-0,00981;86,57527
0,4928;86,97870;-0,00966;86,97870
0,4952;87,38026;-0,00950;87,38026
0,4978;87,81070;-0,00919;87,81070
0,5005;88,23950;-0,00903;88,23950
0,5031;88,66702;-0,00887;88,66702
0,5057;89,09327;-0,00856;89,09327
0,5084;89,51800;-0,00840;89,51800
0,5110;89,94098;-0,00808;89,94098
0,5136;90,36187;-0,00793;90,36187
0,5162;90,78113;-0,00778;90,78113
0,5189;91,19911;-0,00746;91,19911
0,5215;91,61616;-0,00731;91,61616
0,5241;92,03286;-0,00700;92,03286
0,5268;92,44944;-0,00684;92,44944
0,5294;92,86567;-0,00669;92,86567
0,5320;93,28109;-0,00637;93,28109
0,5346;93,69546;-0,00622;93,69546
0,5373;94,10844;-0,00591;94,10844
0,5399;94,52025;-0,00576;94,52025
0,5425;94,93089;-0,00560;94,93089
0,5452;95,34072;-0,00530;95,34072
0,5478;95,74963;-0,00514;95,74963
0,5504;96,15759;-0,00483;96,15759
0,5530;96,56440;-0,00468;96,56440
0,5557;96,97051;-0,00453;96,97051
0,5583;97,37615;-0,00421;97,37615
0,5609;97,78144;-0,00407;97,78144
0,5636;98,18603;-0,00376;98,18603
0,5662;98,58970;-0,00360;98,58970
0,5688;98,99243;-0,00346;98,99243
0,5714;99,39399;-0,00314;99,39399
0,5741;99,79486;-0,00299;99,79486
0,5767;100,19550;-0,00269;100,19550
0,5793;100,59625;-0,00253;100,59625
0,5819;100,99689;-0,00238;100,99689
0,5846;101,39729;-0,00208;101,39729
0,5874;101,82586;-0,00193;101,82586
0,5902;102,25362;-0,00162;102,25362
0,5930;102,68056;-0,00147;102,68056
0,5958;103,10680;-0,00116;103,10680
0,5987;103,53165;-0,00101;103,53165
0,6015;103,95324;-0,00071;103,95324
0,6043;104,37017;-0,00056;104,37017
0,6071;104,78128;-0,00025;104,78128
0,6099;105,18739;-0,00010;105,18739
0,6127;105,58989;0,00020;105,58989
0,6156;105,99041;0,00035;105,99041
0,6186;106,41642;0,00065;106,41642
0,6216;106,84103;0,00081;106,84103
0,6246;107,26436;0,00111;107,26436
0,6276;107,68619;0,00141;107,68619
0,6306;108,10614;0,00157;108,10614
0,6336;108,52342;0,00187;108,52342
0,6366;108,93814;0,00202;108,93814
0,6396;109,35054;0,00233;109,35054
0,6426;109,76083;0,00264;109,76083
0,6456;110,16904;0,00279;110,16904
0,6486;110,57479;0,00310;110,57479
0,6516;110,97764;0,00326;110,97764
0,6548;111,40214;0,00356;111,40214
0,6580;111,82326;0,00388;111,82326
0,6612;112,24194;0,00418;112,24194
0,6644;112,66027;0,00434;112,66027
0,6676;113,08034;0,00466;113,08034
0,6708;113,50263;0,00498;113,50263
0,6739;113,92410;0,00514;113,92410
0,6771;114,34173;0,00546;114,34173
0,6803;114,75319;0,00578;114,75319
0,6835;115,15650;0,00595;115,15650
0,6869;115,57367;0,00627;115,57367
0,6903;115,98152;0,00661;115,98152
0,6937;116,38332;0,00694;116,38332
0,6972;116,80526;0,00728;116,80526
0,7006;117,20787;0,00763;117,20787
0,7040;117,61689;0,00780;117,61689
0,7075;118,03789;0,00814;118,03789
0,7117;118,44412;0,00850;118,44412
0,7188;118,84615;0,00925;118,84615
1,2582;119,11572;0,60957;119,11572
1,2871;119,52672;0,64468;119,52672
1,2922;119,94155;0,65137;119,94155
1,2967;120,35825;0,65577;120,35825
1,3012;120,77414;0,66013;120,77414
1,3064;121,18525;0,66661;121,18525
1,3141;121,58647;0,67515;121,58647
1,3254;121,99071;0,68783;121,99071
1,3342;122,39659;0,69844;122,39659
1,3414;122,80153;0,70706;122,80153
1,3485;123,20752;0,71588;123,20752
1,3558;123,60769;0,72499;123,60769
1,3633;124,01752;0,73446;124,01752
1,3690;124,41758;0,74182;124,41758
1,3740;124,81798;0,74687;124,81798
1,3787;125,22944;0,75468;125,22944
1,3836;125,63962;0,76003;125,63962
1,3913;126,04072;0,77113;126,04072
1,5755;126,20705;1,37563;126,20705
1,6637;126,23964;1,98405;126,23964
1,7313;126,25757;2,58965;126,25757
1,7895;126,27223;3,18972;126,27223
1,8439;126,28527;3,79521;126,28527
1,8965;126,29656;4,39970;126,29656
1,9491;126,30506;5,00560;126,30506
2,0035;126,31344;5,61901;126,31344
2,0598;126,32170;6,22589;126,32170
2,1199;126,33043;6,83333;126,33043
2,1819;126,33823;7,41193;126,33823
2,1826;126,33835;7,41193;126,33835
