Part protocol
Network name;Part_OP10_MP-001_2020-08-26_10-22-32_0012_OK.csv
Protocol version;2.01.00

Index;Result information;Process values - curve related;Process values - EO related;Evaluation objects settings;Switch signal settings;Device information;Channel-X settings;Channel-Y settings;Cycle control settings;Evaluation settings;Trigger Y settings;Block settings;Measuring curve;Measuring points;Sequence;
Line;10;30;40;70;100;120;150;190;220;240;250;260;270;280;600;



Result information
Date;2020/08/26
Time;10:22:32
Cycle number;12
Total result;OK
Triggered switch signals
Part serial number;0012
Measuring program name;D57-Left
Measuring program number;1
Zero X offset;0,00;mm
Tara Y offset;0,0;kN









Process values - curve related
Block X;126,28;mm;XMIN-X;-0,15;mm
Block Y;7,3;kN;XMIN-Y;0,0;kN
Ref X;-;mm;XMAX-X;126,28;mm
Peak-peak X;126,43;mm;XMAX-Y;7,3;kN
Peak-peak Y;7,4;kN;YMIN-X;0,25;mm
;;;YMIN-Y;0,0;kN
;;;YMAX-X;126,28;mm
;;;YMAX-Y;7,3;kN

Process values - EO related;Result;Entry;Exit;XMIN-X;XMIN-Y;XMAX-X;XMAX-Y;YMIN-Y;YMIN-X;YMAX-Y;YMAX-X
;;;;mm;kN;mm;kN;kN;mm;kN;mm
EO-01;OK;0,8;0,8;;;;;0,8;124,50;0,8;125,62;;;;;;
EO-02;OK;126,24;126,26;126,24;4,5;126,25;5,1;;;;;;;;;;
EO-03;None;
EO-04;None;
























Evaluation objects settings;Reaction;X reference;Y-Reference;XMin;XMax;YMin;YMax;Entry;Exit;Curve part;Catch zone X;Catch zone Y
EO-01;UNI-BOX;ABSOLUTE;-;124,50;125,70;0,5;3,0;LEFT;RIGHT;ANY;+50%;+50%
EO-02;UNI-BOX;ABSOLUTE;-;125,80;127,20;4,5;5,5;BELOW;ABOVE;ANY;+50%;+50%
EO-03;OFF
EO-04;OFF

























Switch signal settings;Channel;Threshold at;;Trigger from;Reference;Latch until
Type S1;OFF
Type S2;OFF

















Device information
Device type;maXYmos BL
Device type number;5867B1011
Device serial number;5182443
Firmware version;2.3.2 (r22473-BL_v2.3.x)
-
-
-
-
-
IP Address;10.0.0.18
Network name;OP10
Profibus address;10
-
-
-
Station name;OP10
Company name;
Comment;











Channel-X settings
Use the settings from global setup;True
Sensor-X type;Â±10V
Unit;mm
Used range from;0,00;mm
Used range to;200,00;mm
Decimal places;XXXX.XX
Scaling by;Teach-In
Point 1;0,00;mm;-0,350;%
Point 2;200,00;mm;10,000;%
Invert signal;FALSE
Filter;20 Hz
Test point;0,00;mm
Tolerance;2,00;mm
Enable sensor test by dig-input;FALSE
Zoom from;110,00;mm
Zoom to;133,11;mm























Channel-Y settings
Use the settings from global setup;True
Sensor-Y type;Strain Gage
Unit;kN
Used range from;0,0;kN
Used range to;20,0;kN
Decimal places;XXXXX.X
Scaling by;Teach-In
Point 1;0,0;kN;-0,01562;%
Point 2;20,0;kN;2,00000;%
Invert signal;FALSE
Filter;1 Hz
Piezo reset;-
Test point;0,0;kN
Tolerance;0,1;kN
Enable sensor test by dig-input;FALSE
Zoom from;0,0;kN
Zoom to;6,0;kN












Cycle control settings
Use the settings from global setup;True
Measuring function;Y (X)
Delta-X;Automatic
START condition;Dig-Input
STOP condition;Dig-Input
Cycle time out;20,00;s
Turning point RIGHT;YMAX
Turning point LEFT;NONE
Cut curve at;NONE










Evaluation settings
Capture only first NOK-EO for statistics;False
Hysteresis-X;0,0;%
Hysteresis-Y;100,0;%






Trigger Y settings
Threshold;1,9;kN
Value X at TRIGGER Y;0,00;mm
Approach from;BELOW






Block settings
Value X at block;XMAX
Block at;0,00;mm







Measuring curve
Number of measuring points;315
Ref. Graph on;ABSOLUTE
Curve segments;0;314;313;315;


Time;X(ABSOLUTE);Y;X (ABSOLUTE)


s;mm;kN;mm
0,0000;-0,15397;-0,03559;-0,15397
0,0965;0,25202;-0,03569;0,25202
0,1005;0,66442;-0,03569;0,66442
0,1033;1,07902;-0,03569;1,07902
0,1056;1,48617;-0,03569;1,48617
0,1076;1,91894;-0,03569;1,91894
0,1095;2,36182;-0,03569;2,36182
0,1112;2,80052;-0,03569;2,80052
0,1127;3,22223;-0,03569;3,22223
0,1142;3,67315;-0,03568;3,67315
0,1155;4,09171;-0,03568;4,09171
0,1168;4,53238;-0,03568;4,53238
0,1181;4,99424;-0,03568;4,99424
0,1193;5,40454;-0,03568;5,40454
0,1204;5,82438;-0,03568;5,82438
0,1215;6,24888;-0,03567;6,24888
0,1226;6,67256;-0,03567;6,67256
0,1238;7,09043;-0,03566;7,09043
0,1249;7,49816;-0,03566;7,49816
0,1262;7,95781;-0,03566;7,95781
0,1275;8,39860;-0,03565;8,39860
0,1288;8,82066;-0,03564;8,82066
0,1302;9,22525;-0,03564;9,22525
0,1317;9,66814;-0,03563;9,66814
0,1332;10,09229;-0,03562;10,09229
0,1347;10,49991;-0,03561;10,49991
0,1363;10,94221;-0,03560;10,94221
0,1380;11,37195;-0,03558;11,37195
0,1397;11,79423;-0,03557;11,79423
0,1414;12,21326;-0,03557;12,21326
0,1431;12,63147;-0,03555;12,63147
0,1448;13,05003;-0,03552;13,05003
0,1465;13,46964;-0,03550;13,46964
0,1482;13,89111;-0,03548;13,89111
0,1499;14,31561;-0,03546;14,31561
0,1516;14,74325;-0,03543;14,74325
0,1532;15,17403;-0,03540;15,17403
0,1549;15,60714;-0,03536;15,60714
0,1566;16,04235;-0,03534;16,04235
0,1583;16,47942;-0,03534;16,47942
0,1600;16,91835;-0,03530;16,91835
0,1617;17,35926;-0,03526;17,35926
0,1634;17,80156;-0,03522;17,80156
0,1651;18,24515;-0,03518;18,24515
0,1668;18,68967;-0,03513;18,68967
0,1685;19,13535;-0,03509;19,13535
0,1701;19,58196;-0,03504;19,58196
0,1718;20,02927;-0,03498;20,02927
0,1735;20,47693;-0,03493;20,47693
0,1752;20,92506;-0,03493;20,92506
0,1769;21,37412;-0,03487;21,37412
0,1786;21,82411;-0,03482;21,82411
0,1801;22,22486;-0,03475;22,22486
0,1816;22,62608;-0,03469;22,62608
0,1831;23,02741;-0,03462;23,02741
0,1846;23,42875;-0,03462;23,42875
0,1861;23,83031;-0,03456;23,83031
0,1876;24,23223;-0,03448;24,23223
0,1891;24,63449;-0,03441;24,63449
0,1906;25,03688;-0,03434;25,03688
0,1921;25,43903;-0,03434;25,43903
0,1936;25,84083;-0,03426;25,84083
0,1951;26,24204;-0,03418;26,24204
0,1966;26,64303;-0,03410;26,64303
0,1981;27,04390;-0,03401;27,04390
0,1996;27,44477;-0,03401;27,44477
0,2011;27,84505;-0,03392;27,84505
0,2028;28,29434;-0,03383;28,29434
0,2045;28,74212;-0,03373;28,74212
0,2062;29,18827;-0,03364;29,18827
0,2079;29,63267;-0,03355;29,63267
0,2096;30,07521;-0,03345;30,07521
0,2113;30,51577;-0,03335;30,51577
0,2129;30,95377;-0,03324;30,95377
0,2146;31,38909;-0,03324;31,38909
0,2163;31,82185;-0,03313;31,82185
0,2180;32,25229;-0,03302;32,25229
0,2197;32,68039;-0,03291;32,68039
0,2214;33,10652;-0,03280;33,10652
0,2231;33,53020;-0,03269;33,53020
0,2248;33,95156;-0,03257;33,95156
0,2265;34,37047;-0,03246;34,37047
0,2282;34,78682;-0,03233;34,78682
0,2298;35,20095;-0,03221;35,20095
0,2315;35,61241;-0,03221;35,61241
0,2332;36,02120;-0,03209;36,02120
0,2349;36,42754;-0,03196;36,42754
0,2366;36,83143;-0,03183;36,83143
0,2383;37,23288;-0,03170;37,23288
0,2402;37,67624;-0,03157;37,67624
0,2420;38,11680;-0,03144;38,11680
0,2439;38,55491;-0,03130;38,55491
0,2458;38,99082;-0,03117;38,99082
0,2477;39,42474;-0,03103;39,42474
0,2496;39,85692;-0,03089;39,85692
0,2514;40,28747;-0,03075;40,28747
0,2533;40,71674;-0,03061;40,71674
0,2552;41,14473;-0,03047;41,14473
0,2571;41,57109;-0,03032;41,57109
0,2589;41,99582;-0,03017;41,99582
0,2608;42,41881;-0,03003;42,41881
0,2627;42,84039;-0,02988;42,84039
0,2646;43,26035;-0,02973;43,26035
0,2665;43,67903;-0,02958;43,67903
0,2683;44,09631;-0,02943;44,09631
0,2702;44,51231;-0,02927;44,51231
0,2721;44,92703;-0,02912;44,92703
0,2740;45,34094;-0,02897;45,34094
0,2758;45,75414;-0,02881;45,75414
0,2777;46,16665;-0,02865;46,16665
0,2796;46,57846;-0,02850;46,57846
0,2815;46,98934;-0,02834;46,98934
0,2833;47,39894;-0,02818;47,39894
0,2852;47,80702;-0,02802;47,80702
0,2871;48,21348;-0,02786;48,21348
0,2890;48,61831;-0,02770;48,61831
0,2909;49,02174;-0,02753;49,02174
0,2927;49,42400;-0,02738;49,42400
0,2946;49,82545;-0,02721;49,82545
0,2965;50,22632;-0,02704;50,22632
0,2984;50,62649;-0,02688;50,62649
0,3004;51,06577;-0,02672;51,06577
0,3025;51,50389;-0,02655;51,50389
0,3046;51,94061;-0,02638;51,94061
0,3066;52,37570;-0,02622;52,37570
0,3087;52,80904;-0,02588;52,80904
0,3108;53,24087;-0,02571;53,24087
0,3128;53,67130;-0,02554;53,67130
0,3149;54,10069;-0,02538;54,10069
0,3170;54,52926;-0,02521;54,52926
0,3190;54,95690;-0,02503;54,95690
0,3211;55,38338;-0,02487;55,38338
0,3231;55,80857;-0,02470;55,80857
0,3252;56,23202;-0,02452;56,23202
0,3273;56,65361;-0,02436;56,65361
0,3293;57,07369;-0,02401;57,07369
0,3314;57,49225;-0,02384;57,49225
0,3335;57,90988;-0,02367;57,90988
0,3355;58,32669;-0,02350;58,32669
0,3376;58,74281;-0,02332;58,74281
0,3397;59,15799;-0,02315;59,15799
0,3417;59,57202;-0,02298;59,57202
0,3438;59,98441;-0,02281;59,98441
0,3459;60,39517;-0,02264;60,39517
0,3479;60,80419;-0,02247;60,80419
0,3500;61,21158;-0,02212;61,21158
0,3521;61,61768;-0,02195;61,61768
0,3541;62,02251;-0,02177;62,02251
0,3562;62,42629;-0,02161;62,42629
0,3583;62,82867;-0,02143;62,82867
0,3603;63,22977;-0,02126;63,22977
0,3626;63,66579;-0,02109;63,66579
0,3648;64,10042;-0,02091;64,10042
0,3671;64,53341;-0,02057;64,53341
0,3693;64,96501;-0,02040;64,96501
0,3716;65,39521;-0,02023;65,39521
0,3738;65,82436;-0,02006;65,82436
0,3761;66,25235;-0,01989;66,25235
0,3783;66,67953;-0,01954;66,67953
0,3806;67,10600;-0,01938;67,10600
0,3828;67,53143;-0,01920;67,53143
0,3851;67,95581;-0,01903;67,95581
0,3874;68,37891;-0,01887;68,37891
0,3896;68,80097;-0,01853;68,80097
0,3919;69,22174;-0,01836;69,22174
0,3941;69,64146;-0,01818;69,64146
0,3964;70,06049;-0,01802;70,06049
0,3986;70,47905;-0,01785;70,47905
0,4009;70,89703;-0,01752;70,89703
0,4031;71,31408;-0,01734;71,31408
0,4054;71,72996;-0,01717;71,72996
0,4076;72,14433;-0,01701;72,14433
0,4099;72,55731;-0,01684;72,55731
0,4121;72,96912;-0,01651;72,96912
0,4144;73,38023;-0,01634;73,38023
0,4166;73,79111;-0,01617;73,79111
0,4189;74,20175;-0,01601;74,20175
0,4211;74,61194;-0,01584;74,61194
0,4234;75,02153;-0,01551;75,02153
0,4257;75,43009;-0,01535;75,43009
0,4279;75,83736;-0,01518;75,83736
0,4302;76,24335;-0,01502;76,24335
0,4324;76,64794;-0,01485;76,64794
0,4347;77,05125;-0,01453;77,05125
0,4369;77,45364;-0,01436;77,45364
0,4392;77,85509;-0,01420;77,85509
0,4414;78,25549;-0,01404;78,25549
0,4439;78,68813;-0,01371;78,68813
0,4463;79,11962;-0,01355;79,11962
0,4487;79,54993;-0,01339;79,54993
0,4512;79,97897;-0,01322;79,97897
0,4536;80,40684;-0,01291;80,40684
0,4561;80,83332;-0,01274;80,83332
0,4585;81,25852;-0,01258;81,25852
0,4609;81,68243;-0,01226;81,68243
0,4634;82,10495;-0,01210;82,10495
0,4658;82,52584;-0,01194;82,52584
0,4683;82,94487;-0,01162;82,94487
0,4707;83,36191;-0,01146;83,36191
0,4732;83,77698;-0,01131;83,77698
0,4756;84,19031;-0,01115;84,19031
0,4780;84,60200;-0,01083;84,60200
0,4805;85,01253;-0,01068;85,01253
0,4829;85,42201;-0,01052;85,42201
0,4854;85,83045;-0,01020;85,83045
0,4878;86,23783;-0,01005;86,23783
0,4902;86,64382;-0,00989;86,64382
0,4927;87,04830;-0,00957;87,04830
0,4951;87,45127;-0,00942;87,45127
0,4976;87,85283;-0,00926;87,85283
0,5002;88,28350;-0,00895;88,28350
0,5028;88,71219;-0,00880;88,71219
0,5054;89,13878;-0,00865;89,13878
0,5081;89,56328;-0,00833;89,56328
0,5107;89,98603;-0,00819;89,98603
0,5133;90,40750;-0,00787;90,40750
0,5160;90,82781;-0,00772;90,82781
0,5186;91,24730;-0,00757;91,24730
0,5212;91,66609;-0,00726;91,66609
0,5238;92,08407;-0,00711;92,08407
0,5265;92,50135;-0,00681;92,50135
0,5291;92,91759;-0,00666;92,91759
0,5317;93,33277;-0,00650;93,33277
0,5344;93,74703;-0,00620;93,74703
0,5370;94,16000;-0,00605;94,16000
0,5396;94,57181;-0,00575;94,57181
0,5422;94,98269;-0,00559;94,98269
0,5449;95,39252;-0,00545;95,39252
0,5475;95,80154;-0,00515;95,80154
0,5501;96,20939;-0,00499;96,20939
0,5528;96,61608;-0,00470;96,61608
0,5554;97,02184;-0,00455;97,02184
0,5580;97,42666;-0,00440;97,42666
0,5606;97,83091;-0,00409;97,83091
0,5633;98,23457;-0,00395;98,23457
0,5659;98,63777;-0,00365;98,63777
0,5685;99,04027;-0,00350;99,04027
0,5712;99,44172;-0,00335;99,44172
0,5738;99,84247;-0,00306;99,84247
0,5766;100,27081;-0,00291;100,27081
0,5794;100,69833;-0,00261;100,69833
0,5822;101,12516;-0,00246;101,12516
0,5850;101,55163;-0,00217;101,55163
0,5879;101,97788;-0,00202;101,97788
0,5907;102,40377;-0,00172;102,40377
0,5935;102,82920;-0,00158;102,82920
0,5963;103,25300;-0,00128;103,25300
0,5991;103,67272;-0,00113;103,67272
0,6019;104,08570;-0,00084;104,08570
0,6048;104,48936;-0,00070;104,48936
0,6078;104,90885;-0,00040;104,90885
0,6108;105,31752;-0,00025;105,31752
0,6140;105,74109;0,00004;105,74109
0,6172;106,15557;0,00034;106,15557
0,6203;106,56331;0,00064;106,56331
0,6235;106,96651;0,00078;106,96651
0,6267;107,36656;0,00108;107,36656
0,6301;107,78722;0,00139;107,78722
0,6335;108,20566;0,00168;108,20566
0,6369;108,62213;0,00183;108,62213
0,6402;109,03766;0,00214;109,03766
0,6436;109,45366;0,00244;109,45366
0,6470;109,87164;0,00276;109,87164
0,6504;110,29346;0,00307;110,29346
0,6536;110,69666;0,00323;110,69666
0,6568;111,10509;0,00354;111,10509
0,6600;111,51795;0,00387;111,51795
0,6631;111,93395;0,00402;111,93395
0,6663;112,35170;0,00436;112,35170
0,6695;112,76933;0,00469;112,76933
0,6727;113,18638;0,00486;113,18638
0,6759;113,60296;0,00520;113,60296
0,6791;114,01943;0,00554;114,01943
0,6823;114,43601;0,00590;114,43601
0,6855;114,85282;0,00608;114,85282
0,6887;115,26847;0,00644;115,26847
0,6919;115,68180;0,00681;115,68180
0,6951;116,09314;0,00700;116,09314
0,6983;116,50507;0,00738;116,50507
0,7014;116,92188;0,00776;116,92188
0,7044;117,32322;0,00796;117,32322
0,7075;117,72851;0,00836;117,72851
0,7106;118,12868;0,00876;118,12868
0,7148;118,53514;0,00918;118,53514
0,7230;118,93589;0,01005;118,93589
1,2530;119,11630;0,61056;119,11630
1,2878;119,52998;0,65326;119,52998
1,2925;119,93748;0,66002;119,93748
1,2966;120,33777;0,66449;120,33777
1,3007;120,74655;0,66892;120,74655
1,3052;121,15720;0,67332;121,15720
1,3112;121,55807;0,68205;121,55807
1,3231;121,96301;0,69508;121,96301
1,3339;122,36423;0,70824;122,36423
1,3407;122,77441;0,71494;122,77441
1,3475;123,18331;0,72410;123,18331
1,3548;123,59104;0,73356;123,59104
1,3645;123,99285;0,74596;123,99285
1,3741;124,39953;0,75911;124,39953
1,3822;124,80913;0,77026;124,80913
1,3886;125,21605;0,78203;125,21605
1,3950;125,62367;0,79130;125,62367
1,4051;126,02734;0,81101;126,02734
1,5759;126,15374;1,42134;126,15374
1,6642;126,18517;2,02808;126,18517
1,7336;126,20379;2,63879;126,20379
1,7937;126,21951;3,24537;126,21951
1,8500;126,22998;3,85941;126,22998
1,9045;126,24151;4,47387;126,24151
1,9589;126,25117;5,09004;126,25117
2,0134;126,25897;5,69231;126,25897
2,0716;126,26769;6,30763;126,26769
2,1335;126,27468;6,92063;126,27468
2,1786;126,28038;7,33653;126,28038
2,1788;126,28050;7,33653;126,28050
