Part protocol
Network name;Part_OP10_MP-002_2020-08-26_15-15-19_0022_OK.csv
Protocol version;2.01.00

Index;Result information;Process values - curve related;Process values - EO related;Evaluation objects settings;Switch signal settings;Device information;Channel-X settings;Channel-Y settings;Cycle control settings;Evaluation settings;Trigger Y settings;Block settings;Measuring curve;Measuring points;Sequence;
Line;10;30;40;70;100;120;150;190;220;240;250;260;270;280;570;



Result information
Date;2020/08/26
Time;15:15:19
Cycle number;22
Total result;OK
Triggered switch signals
Part serial number;0022
Measuring program name;D57-Right
Measuring program number;2
Zero X offset;0,00;mm
Tara Y offset;0,0;kN









Process values - curve related
Block X;116,09;mm;XMIN-X;-0,06;mm
Block Y;4,8;kN;XMIN-Y;0,0;kN
Ref X;-;mm;XMAX-X;116,09;mm
Peak-peak X;116,15;mm;XMAX-Y;4,8;kN
Peak-peak Y;4,9;kN;YMIN-X;-0,06;mm
;;;YMIN-Y;0,0;kN
;;;YMAX-X;116,09;mm
;;;YMAX-Y;4,8;kN

Process values - EO related;Result;Entry;Exit;XMIN-X;XMIN-Y;XMAX-X;XMAX-Y;YMIN-Y;YMIN-X;YMAX-Y;YMAX-X
;;;;mm;kN;mm;kN;kN;mm;kN;mm
EO-01;OK;0,7;0,7;;;;;0,7;115,00;0,7;115,20;;;;;;
EO-02;OK;;116,07;116,05;2,3;116,06;3,0;2,3;116,05;;;;;;;;
EO-03;None;
EO-04;None;
























Evaluation objects settings;Reaction;X reference;Y-Reference;XMin;XMax;YMin;YMax;Entry;Exit;Curve part;Catch zone X;Catch zone Y
EO-01;UNI-BOX;ABSOLUTE;-;115,00;115,50;0,4;2,0;LEFT;RIGHT;ANY;+50%;+50%
EO-02;UNI-BOX;ABSOLUTE;-;115,40;117,10;2,3;3,3;ANY;ABOVE;ANY;+50%;+50%
EO-03;OFF
EO-04;OFF

























Switch signal settings;Channel;Threshold at;;Trigger from;Reference;Latch until
Type S1;OFF
Type S2;OFF

















Device information
Device type;maXYmos BL
Device type number;5867B1011
Device serial number;5182443
Firmware version;2.3.2 (r22473-BL_v2.3.x)
-
-
-
-
-
IP Address;10.0.0.18
Network name;OP10
Profibus address;10
-
-
-
Station name;OP10
Company name;
Comment;











Channel-X settings
Use the settings from global setup;True
Sensor-X type;Â±10V
Unit;mm
Used range from;0,00;mm
Used range to;200,00;mm
Decimal places;XXXX.XX
Scaling by;Teach-In
Point 1;0,00;mm;-0,350;%
Point 2;200,00;mm;10,000;%
Invert signal;FALSE
Filter;20 Hz
Test point;0,00;mm
Tolerance;2,00;mm
Enable sensor test by dig-input;FALSE
Zoom from;100,00;mm
Zoom to;120,00;mm























Channel-Y settings
Use the settings from global setup;True
Sensor-Y type;Strain Gage
Unit;kN
Used range from;0,0;kN
Used range to;20,0;kN
Decimal places;XXXXX.X
Scaling by;Teach-In
Point 1;0,0;kN;-0,01562;%
Point 2;20,0;kN;2,00000;%
Invert signal;FALSE
Filter;1 Hz
Piezo reset;-
Test point;0,0;kN
Tolerance;0,1;kN
Enable sensor test by dig-input;FALSE
Zoom from;0,0;kN
Zoom to;5,0;kN












Cycle control settings
Use the settings from global setup;True
Measuring function;Y (X)
Delta-X;Automatic
START condition;Dig-Input
STOP condition;Dig-Input
Cycle time out;20,00;s
Turning point RIGHT;YMAX
Turning point LEFT;NONE
Cut curve at;NONE










Evaluation settings
Capture only first NOK-EO for statistics;False
Hysteresis-X;0,0;%
Hysteresis-Y;100,0;%






Trigger Y settings
Threshold;1,8;kN
Value X at TRIGGER Y;0,00;mm
Approach from;BELOW






Block settings
Value X at block;XMAX
Block at;0,00;mm







Measuring curve
Number of measuring points;288
Ref. Graph on;ABSOLUTE
Curve segments;0;288;287;288;


Time;X(ABSOLUTE);Y;X (ABSOLUTE)


s;mm;kN;mm
0,0000;-0,06190;-0,03573;-0,06190
0,1001;0,34805;-0,03573;0,34805
0,1033;0,75253;-0,03572;0,75253
0,1056;1,15852;-0,03572;1,15852
0,1074;1,57813;-0,03572;1,57813
0,1091;2,01857;-0,03572;2,01857
0,1106;2,45506;-0,03571;2,45506
0,1119;2,86512;-0,03571;2,86512
0,1133;3,29381;-0,03570;3,29381
0,1146;3,73321;-0,03569;3,73321
0,1159;4,17668;-0,03568;4,17668
0,1172;4,61921;-0,03568;4,61921
0,1185;5,05687;-0,03566;5,05687
0,1198;5,48683;-0,03565;5,48683
0,1211;5,90679;-0,03565;5,90679
0,1225;6,31557;-0,03563;6,31557
0,1240;6,76917;-0,03561;6,76917
0,1255;7,20996;-0,03559;7,20996
0,1270;7,64040;-0,03559;7,64040
0,1285;8,06245;-0,03557;8,06245
0,1300;8,47845;-0,03553;8,47845
0,1315;8,89038;-0,03550;8,89038
0,1330;9,30021;-0,03547;9,30021
0,1345;9,70946;-0,03547;9,70946
0,1360;10,11929;-0,03543;10,11929
0,1375;10,53040;-0,03538;10,53040
0,1390;10,94338;-0,03534;10,94338
0,1405;11,35821;-0,03529;11,35821
0,1420;11,77480;-0,03529;11,77480
0,1435;12,19266;-0,03523;12,19266
0,1450;12,61099;-0,03518;12,61099
0,1465;13,02920;-0,03511;13,02920
0,1480;13,44660;-0,03505;13,44660
0,1495;13,86213;-0,03505;13,86213
0,1510;14,27534;-0,03498;14,27534
0,1525;14,68540;-0,03490;14,68540
0,1540;15,09197;-0,03482;15,09197
0,1555;15,49459;-0,03473;15,49459
0,1572;15,94248;-0,03464;15,94248
0,1589;16,38467;-0,03464;16,38467
0,1606;16,82104;-0,03455;16,82104
0,1623;17,25148;-0,03445;17,25148
0,1639;17,67609;-0,03434;17,67609
0,1656;18,09500;-0,03423;18,09500
0,1673;18,50856;-0,03410;18,50856
0,1690;18,91722;-0,03398;18,91722
0,1707;19,32147;-0,03385;19,32147
0,1724;19,72164;-0,03373;19,72164
0,1743;20,16208;-0,03359;20,16208
0,1761;20,59810;-0,03344;20,59810
0,1780;21,03017;-0,03329;21,03017
0,1799;21,45839;-0,03313;21,45839
0,1818;21,88289;-0,03298;21,88289
0,1837;22,30389;-0,03280;22,30389
0,1855;22,72152;-0,03263;22,72152
0,1874;23,13624;-0,03245;23,13624
0,1893;23,54817;-0,03226;23,54817
0,1912;23,95788;-0,03207;23,95788
0,1930;24,36539;-0,03187;24,36539
0,1949;24,77126;-0,03167;24,77126
0,1968;25,17550;-0,03146;25,17550
0,1987;25,57859;-0,03124;25,57859
0,2006;25,98027;-0,03102;25,98027
0,2024;26,38067;-0,03079;26,38067
0,2045;26,82007;-0,03056;26,82007
0,2066;27,25830;-0,03031;27,25830
0,2086;27,69583;-0,03007;27,69583
0,2107;28,13290;-0,02981;28,13290
0,2128;28,56985;-0,02955;28,56985
0,2148;29,00681;-0,02929;29,00681
0,2169;29,44376;-0,02901;29,44376
0,2190;29,88083;-0,02874;29,88083
0,2210;30,31813;-0,02816;30,31813
0,2231;30,75566;-0,02787;30,75566
0,2251;31,19389;-0,02756;31,19389
0,2272;31,63317;-0,02725;31,63317
0,2291;32,03393;-0,02693;32,03393
0,2310;32,43631;-0,02661;32,43631
0,2328;32,84067;-0,02628;32,84067
0,2347;33,24701;-0,02595;33,24701
0,2366;33,65568;-0,02561;33,65568
0,2385;34,06667;-0,02526;34,06667
0,2404;34,47976;-0,02490;34,47976
0,2422;34,89483;-0,02455;34,89483
0,2441;35,31176;-0,02418;35,31176
0,2460;35,73032;-0,02381;35,73032
0,2479;36,15040;-0,02343;36,15040
0,2497;36,57175;-0,02305;36,57175
0,2516;36,99439;-0,02266;36,99439
0,2535;37,41795;-0,02227;37,41795
0,2554;37,84222;-0,02187;37,84222
0,2573;38,26707;-0,02146;38,26707
0,2591;38,69214;-0,02105;38,69214
0,2610;39,11722;-0,02064;39,11722
0,2629;39,54207;-0,02021;39,54207
0,2648;39,96645;-0,01978;39,96645
0,2666;40,39013;-0,01935;40,39013
0,2685;40,81277;-0,01891;40,81277
0,2704;41,23424;-0,01846;41,23424
0,2723;41,65432;-0,01802;41,65432
0,2741;42,07299;-0,01755;42,07299
0,2760;42,49016;-0,01710;42,49016
0,2779;42,90569;-0,01663;42,90569
0,2798;43,31960;-0,01617;43,31960
0,2817;43,73164;-0,01568;43,73164
0,2835;44,14147;-0,01520;44,14147
0,2854;44,54909;-0,01472;44,54909
0,2873;44,95415;-0,01423;44,95415
0,2892;45,35665;-0,01374;45,35665
0,2912;45,79639;-0,01324;45,79639
0,2933;46,23300;-0,01274;46,23300
0,2954;46,66634;-0,01223;46,66634
0,2974;47,09643;-0,01172;47,09643
0,2995;47,52302;-0,01120;47,52302
0,3016;47,94612;-0,01068;47,94612
0,3036;48,36561;-0,00964;48,36561
0,3057;48,78184;-0,00911;48,78184
0,3078;49,19482;-0,00857;49,19482
0,3098;49,60477;-0,00804;49,60477
0,3119;50,01204;-0,00750;50,01204
0,3139;50,41640;-0,00695;50,41640
0,3160;50,81797;-0,00641;50,81797
0,3183;51,25294;-0,00585;51,25294
0,3205;51,68500;-0,00475;51,68500
0,3228;52,11474;-0,00419;52,11474
0,3250;52,54249;-0,00363;52,54249
0,3273;52,96839;-0,00307;52,96839
0,3295;53,39219;-0,00249;53,39219
0,3318;53,81412;-0,00135;53,81412
0,3340;54,23408;-0,00078;54,23408
0,3363;54,65206;-0,00021;54,65206
0,3385;55,06841;0,00037;55,06841
0,3408;55,48290;0,00095;55,48290
0,3430;55,89576;0,00212;55,89576
0,3453;56,30710;0,00270;56,30710
0,3476;56,71693;0,00328;56,71693
0,3498;57,12560;0,00387;57,12560
0,3521;57,53345;0,00446;57,53345
0,3543;57,94084;0,00564;57,94084
0,3566;58,34799;0,00624;58,34799
0,3588;58,75503;0,00683;58,75503
0,3611;59,16195;0,00742;59,16195
0,3633;59,56899;0,00802;59,56899
0,3656;59,97603;0,00921;59,97603
0,3678;60,38330;0,00981;60,38330
0,3701;60,79080;0,01041;60,79080
0,3723;61,19889;0,01100;61,19889
0,3746;61,60744;0,01161;61,60744
0,3768;62,01646;0,01281;62,01646
0,3791;62,42547;0,01340;62,42547
0,3813;62,83437;0,01400;62,83437
0,3836;63,24316;0,01460;63,24316
0,3859;63,65182;0,01521;63,65182
0,3881;64,06061;0,01640;64,06061
0,3904;64,46963;0,01700;64,46963
0,3926;64,87911;0,01760;64,87911
0,3949;65,28894;0,01820;65,28894
0,3971;65,69854;0,01880;65,69854
0,3994;66,10802;0,01999;66,10802
0,4016;66,51715;0,02058;66,51715
0,4039;66,92594;0,02119;66,92594
0,4061;67,33449;0,02178;67,33449
0,4084;67,74269;0,02237;67,74269
0,4106;68,15031;0,02356;68,15031
0,4129;68,55723;0,02415;68,55723
0,4151;68,96311;0,02474;68,96311
0,4174;69,36782;0,02532;69,36782
0,4196;69,77124;0,02592;69,77124
0,4219;70,17351;0,02708;70,17351
0,4242;70,57461;0,02768;70,57461
0,4266;71,00761;0,02825;71,00761
0,4290;71,43897;0,02883;71,43897
0,4315;71,86871;0,02999;71,86871
0,4339;72,29670;0,03056;72,29670
0,4364;72,72317;0,03114;72,72317
0,4388;73,14837;0,03229;73,14837
0,4412;73,57217;0,03285;73,57217
0,4437;73,99457;0,03342;73,99457
0,4461;74,41534;0,03399;74,41534
0,4486;74,83425;0,03511;74,83425
0,4510;75,25107;0,03567;75,25107
0,4534;75,66567;0,03623;75,66567
0,4559;76,07795;0,03733;76,07795
0,4583;76,48790;0,03789;76,48790
0,4608;76,89598;0,03843;76,89598
0,4632;77,30232;0,03952;77,30232
0,4656;77,70703;0,04006;77,70703
0,4681;78,11058;0,04060;78,11058
0,4705;78,51273;0,04114;78,51273
0,4730;78,91371;0,04220;78,91371
0,4756;79,34414;0,04274;79,34414
0,4782;79,77318;0,04378;79,77318
0,4809;80,20036;0,04430;80,20036
0,4835;80,62590;0,04482;80,62590
0,4861;81,04970;0,04586;81,04970
0,4887;81,47164;0,04637;81,47164
0,4914;81,89194;0,04737;81,89194
0,4940;82,31074;0,04787;82,31074
0,4966;82,72837;0,04837;82,72837
0,4992;83,14495;0,04937;83,14495
0,5019;83,56095;0,04986;83,56095
0,5045;83,97649;0,05084;83,97649
0,5071;84,39144;0,05132;84,39144
0,5098;84,80604;0,05180;84,80604
0,5124;85,22030;0,05275;85,22030
0,5150;85,63420;0,05322;85,63420
0,5176;86,04799;0,05416;86,04799
0,5203;86,46201;0,05462;86,46201
0,5229;86,87627;0,05509;86,87627
0,5255;87,29006;0,05599;87,29006
0,5282;87,70315;0,05645;87,70315
0,5308;88,11566;0,05734;88,11566
0,5334;88,52781;0,05779;88,52781
0,5360;88,93939;0,05822;88,93939
0,5387;89,35039;0,05910;89,35039
0,5413;89,76080;0,05953;89,76080
0,5439;90,17028;0,06039;90,17028
0,5466;90,57860;0,06081;90,57860
0,5492;90,98576;0,06123;90,98576
0,5518;91,39151;0,06207;91,39151
0,5544;91,79622;0,06247;91,79622
0,5571;92,19977;0,06330;92,19977
0,5597;92,60238;0,06369;92,60238
0,5623;93,00360;0,06410;93,00360
0,5651;93,43194;0,06489;93,43194
0,5680;93,85877;0,06529;93,85877
0,5708;94,28420;0,06606;94,28420
0,5736;94,70799;0,06644;94,70799
0,5764;95,13028;0,06721;95,13028
0,5792;95,55105;0,06758;95,55105
0,5820;95,97020;0,06833;95,97020
0,5849;96,38736;0,06870;96,38736
0,5877;96,80301;0,06943;96,80301
0,5905;97,21727;0,06979;97,21727
0,5933;97,63036;0,07051;97,63036
0,5961;98,04275;0,07086;98,04275
0,5989;98,45444;0,07155;98,45444
0,6018;98,86509;0,07191;98,86509
0,6046;99,27457;0,07259;99,27457
0,6074;99,68231;0,07292;99,68231
0,6102;100,08841;0,07359;100,08841
0,6130;100,49278;0,07392;100,49278
0,6158;100,89562;0,07458;100,89562
0,6187;101,29742;0,07490;101,29742
0,6215;101,69794;0,07554;101,69794
0,6245;102,12419;0,07586;102,12419
0,6275;102,54962;0,07649;102,54962
0,6305;102,97458;0,07711;102,97458
0,6335;103,39966;0,07741;103,39966
0,6365;103,82567;0,07801;103,82567
0,6393;104,22630;0,07832;104,22630
0,6421;104,62810;0,07891;104,62810
0,6449;105,03130;0,07920;105,03130
0,6478;105,43520;0,07978;105,43520
0,6506;105,83967;0,08007;105,83967
0,6534;106,24415;0,08063;106,24415
0,6562;106,64746;0,08092;106,64746
0,6592;107,07289;0,08148;107,07289
0,6622;107,48901;0,08202;107,48901
0,6652;107,89186;0,08230;107,89186
0,6684;108,30087;0,08284;108,30087
0,6718;108,70442;0,08337;108,70442
0,6755;109,10517;0,08390;109,10517
0,6802;109,51710;0,08442;109,51710
0,6872;109,91925;0,08546;109,91925
0,7456;110,32117;0,09437;110,32117
0,7580;110,72215;0,09705;110,72215
0,7655;111,13198;0,09877;111,13198
0,7717;111,53716;0,10016;111,53716
0,7775;111,94396;0,10164;111,94396
0,7833;112,34623;0,10322;112,34623
0,7902;112,74896;0,10551;112,74896
1,2089;113,14901;0,58901;113,14901
1,2712;113,55687;0,66099;113,55687
1,2763;113,97229;0,66691;113,97229
1,2806;114,38223;0,67080;114,38223
1,2848;114,78776;0,67466;114,78776
1,2893;115,19549;0,68039;115,19549
1,2955;115,60358;0,68606;115,60358
1,4601;116,00363;1,12354;116,00363
1,5333;116,03227;1,73893;116,03227
1,5859;116,04891;2,36148;116,04891
1,6309;116,06020;2,98254;116,06020
1,6723;116,07138;3,59455;116,07138
1,7117;116,07976;4,19463;116,07976
1,7530;116,08767;4,82060;116,08767
1,7535;116,08779;4,82060;116,08779
1,7549;116,08779;4,84873;116,08779
