Part protocol
Network name;Part_OP10_MP-001_2020-08-26_15-03-24_0019_OK.csv
Protocol version;2.01.00

Index;Result information;Process values - curve related;Process values - EO related;Evaluation objects settings;Switch signal settings;Device information;Channel-X settings;Channel-Y settings;Cycle control settings;Evaluation settings;Trigger Y settings;Block settings;Measuring curve;Measuring points;Sequence;
Line;10;30;40;70;100;120;150;190;220;240;250;260;270;280;600;



Result information
Date;2020/08/26
Time;15:03:24
Cycle number;19
Total result;OK
Triggered switch signals
Part serial number;0019
Measuring program name;D57-Left
Measuring program number;1
Zero X offset;0,00;mm
Tara Y offset;0,0;kN









Process values - curve related
Block X;126,47;mm;XMIN-X;-0,17;mm
Block Y;7,5;kN;XMIN-Y;0,0;kN
Ref X;-;mm;XMAX-X;126,47;mm
Peak-peak X;126,63;mm;XMAX-Y;7,5;kN
Peak-peak Y;7,6;kN;YMIN-X;0,25;mm
;;;YMIN-Y;0,0;kN
;;;YMAX-X;126,46;mm
;;;YMAX-Y;7,6;kN

Process values - EO related;Result;Entry;Exit;XMIN-X;XMIN-Y;XMAX-X;XMAX-Y;YMIN-Y;YMIN-X;YMAX-Y;YMAX-X
;;;;mm;kN;mm;kN;kN;mm;kN;mm
EO-01;OK;0,7;0,8;;;;;0,7;124,50;0,8;125,64;;;;;;
EO-02;OK;126,42;126,44;126,42;4,5;126,44;5,0;;;;;;;;;;
EO-03;None;
EO-04;None;
























Evaluation objects settings;Reaction;X reference;Y-Reference;XMin;XMax;YMin;YMax;Entry;Exit;Curve part;Catch zone X;Catch zone Y
EO-01;UNI-BOX;ABSOLUTE;-;124,50;125,70;0,5;3,0;LEFT;RIGHT;ANY;+50%;+50%
EO-02;UNI-BOX;ABSOLUTE;-;125,80;127,20;4,5;5,5;BELOW;ABOVE;ANY;+50%;+50%
EO-03;OFF
EO-04;OFF

























Switch signal settings;Channel;Threshold at;;Trigger from;Reference;Latch until
Type S1;OFF
Type S2;OFF

















Device information
Device type;maXYmos BL
Device type number;5867B1011
Device serial number;5182443
Firmware version;2.3.2 (r22473-BL_v2.3.x)
-
-
-
-
-
IP Address;10.0.0.18
Network name;OP10
Profibus address;10
-
-
-
Station name;OP10
Company name;
Comment;











Channel-X settings
Use the settings from global setup;True
Sensor-X type;Â±10V
Unit;mm
Used range from;0,00;mm
Used range to;200,00;mm
Decimal places;XXXX.XX
Scaling by;Teach-In
Point 1;0,00;mm;-0,350;%
Point 2;200,00;mm;10,000;%
Invert signal;FALSE
Filter;20 Hz
Test point;0,00;mm
Tolerance;2,00;mm
Enable sensor test by dig-input;FALSE
Zoom from;110,00;mm
Zoom to;133,11;mm























Channel-Y settings
Use the settings from global setup;True
Sensor-Y type;Strain Gage
Unit;kN
Used range from;0,0;kN
Used range to;20,0;kN
Decimal places;XXXXX.X
Scaling by;Teach-In
Point 1;0,0;kN;-0,01562;%
Point 2;20,0;kN;2,00000;%
Invert signal;FALSE
Filter;1 Hz
Piezo reset;-
Test point;0,0;kN
Tolerance;0,1;kN
Enable sensor test by dig-input;FALSE
Zoom from;0,0;kN
Zoom to;6,0;kN












Cycle control settings
Use the settings from global setup;True
Measuring function;Y (X)
Delta-X;Automatic
START condition;Dig-Input
STOP condition;Dig-Input
Cycle time out;20,00;s
Turning point RIGHT;YMAX
Turning point LEFT;NONE
Cut curve at;NONE










Evaluation settings
Capture only first NOK-EO for statistics;False
Hysteresis-X;0,0;%
Hysteresis-Y;100,0;%






Trigger Y settings
Threshold;1,9;kN
Value X at TRIGGER Y;0,00;mm
Approach from;BELOW






Block settings
Value X at block;XMAX
Block at;0,00;mm







Measuring curve
Number of measuring points;316
Ref. Graph on;ABSOLUTE
Curve segments;0;316;315;316;


Time;X(ABSOLUTE);Y;X (ABSOLUTE)


s;mm;kN;mm
0,0000;-0,16735;-0,03473;-0,16735
0,0923;0,24504;-0,03480;0,24504
0,0963;0,66279;-0,03480;0,66279
0,0991;1,07937;-0,03480;1,07937
0,1013;1,48583;-0,03480;1,48583
0,1034;1,91579;-0,03480;1,91579
0,1053;2,35438;-0,03480;2,35438
0,1070;2,78760;-0,03480;2,78760
0,1085;3,20314;-0,03480;3,20314
0,1100;3,64684;-0,03479;3,64684
0,1113;4,05807;-0,03479;4,05807
0,1126;4,49095;-0,03479;4,49095
0,1139;4,94501;-0,03479;4,94501
0,1150;5,34925;-0,03479;5,34925
0,1162;5,76444;-0,03478;5,76444
0,1173;6,18603;-0,03478;6,18603
0,1184;6,60913;-0,03478;6,60913
0,1195;7,02908;-0,03477;7,02908
0,1207;7,44148;-0,03477;7,44148
0,1218;7,84339;-0,03477;7,84339
0,1231;8,29629;-0,03476;8,29629
0,1244;8,73092;-0,03476;8,73092
0,1257;9,14703;-0,03475;9,14703
0,1272;9,60028;-0,03474;9,60028
0,1287;10,03095;-0,03473;10,03095
0,1302;10,44089;-0,03473;10,44089
0,1319;10,88099;-0,03473;10,88099
0,1336;11,30421;-0,03471;11,30421
0,1353;11,71683;-0,03470;11,71683
0,1370;12,12387;-0,03468;12,12387
0,1387;12,52846;-0,03466;12,52846
0,1404;12,93236;-0,03464;12,93236
0,1421;13,33718;-0,03461;13,33718
0,1438;13,74480;-0,03460;13,74480
0,1455;14,15685;-0,03457;14,15685
0,1471;14,57389;-0,03454;14,57389
0,1488;14,99537;-0,03454;14,99537
0,1505;15,42033;-0,03451;15,42033
0,1522;15,84855;-0,03448;15,84855
0,1539;16,28015;-0,03446;16,28015
0,1556;16,71500;-0,03442;16,71500
0,1573;17,15254;-0,03438;17,15254
0,1590;17,59193;-0,03435;17,59193
0,1607;18,03273;-0,03430;18,03273
0,1623;18,47492;-0,03425;18,47492
0,1640;18,91874;-0,03422;18,91874
0,1657;19,36419;-0,03422;19,36419
0,1674;19,81057;-0,03416;19,81057
0,1691;20,25741;-0,03411;20,25741
0,1708;20,70472;-0,03406;20,70472
0,1725;21,15285;-0,03400;21,15285
0,1742;21,60237;-0,03395;21,60237
0,1757;22,00289;-0,03389;22,00289
0,1772;22,40388;-0,03383;22,40388
0,1787;22,80498;-0,03383;22,80498
0,1802;23,20585;-0,03376;23,20585
0,1817;23,60672;-0,03370;23,60672
0,1832;24,00793;-0,03362;24,00793
0,1847;24,40950;-0,03356;24,40950
0,1862;24,81142;-0,03356;24,81142
0,1877;25,21298;-0,03348;25,21298
0,1892;25,61409;-0,03340;25,61409
0,1907;26,01449;-0,03333;26,01449
0,1922;26,41466;-0,03324;26,41466
0,1939;26,86465;-0,03324;26,86465
0,1956;27,31440;-0,03316;27,31440
0,1973;27,76346;-0,03308;27,76346
0,1990;28,21112;-0,03298;28,21112
0,2006;28,65680;-0,03290;28,65680
0,2023;29,10074;-0,03281;29,10074
0,2040;29,54316;-0,03271;29,54316
0,2057;29,98384;-0,03261;29,98384
0,2074;30,42242;-0,03251;30,42242
0,2091;30,85867;-0,03241;30,85867
0,2108;31,29260;-0,03241;31,29260
0,2125;31,72408;-0,03231;31,72408
0,2142;32,15346;-0,03220;32,15346
0,2159;32,58087;-0,03210;32,58087
0,2175;33,00607;-0,03199;33,00607
0,2192;33,42894;-0,03187;33,42894
0,2209;33,84948;-0,03175;33,84948
0,2226;34,26769;-0,03164;34,26769
0,2243;34,68369;-0,03152;34,68369
0,2260;35,09748;-0,03140;35,09748
0,2277;35,50894;-0,03140;35,50894
0,2294;35,91807;-0,03128;35,91807
0,2311;36,32476;-0,03116;36,32476
0,2328;36,72924;-0,03103;36,72924
0,2344;37,13162;-0,03090;37,13162
0,2361;37,53191;-0,03077;37,53191
0,2380;37,97421;-0,03064;37,97421
0,2399;38,41407;-0,03051;38,41407
0,2418;38,85184;-0,03038;38,85184
0,2436;39,28763;-0,03024;39,28763
0,2455;39,72167;-0,03011;39,72167
0,2474;40,15408;-0,02997;40,15408
0,2493;40,58510;-0,02983;40,58510
0,2511;41,01495;-0,02969;41,01495
0,2530;41,44329;-0,02955;41,44329
0,2549;41,87023;-0,02940;41,87023
0,2568;42,29531;-0,02926;42,29531
0,2587;42,71864;-0,02912;42,71864
0,2605;43,14011;-0,02897;43,14011
0,2624;43,55984;-0,02882;43,55984
0,2643;43,97759;-0,02867;43,97759
0,2662;44,39359;-0,02852;44,39359
0,2680;44,80796;-0,02837;44,80796
0,2699;45,22093;-0,02822;45,22093
0,2718;45,63297;-0,02806;45,63297
0,2737;46,04432;-0,02791;46,04432
0,2756;46,45508;-0,02775;46,45508
0,2774;46,86503;-0,02760;46,86503
0,2793;47,27393;-0,02744;47,27393
0,2812;47,68132;-0,02728;47,68132
0,2831;48,08696;-0,02713;48,08696
0,2849;48,49085;-0,02697;48,49085
0,2868;48,89289;-0,02681;48,89289
0,2887;49,29341;-0,02665;49,29341
0,2908;49,73269;-0,02649;49,73269
0,2928;50,17092;-0,02633;50,17092
0,2949;50,60810;-0,02616;50,60810
0,2970;51,04447;-0,02601;51,04447
0,2990;51,47979;-0,02584;51,47979
0,3011;51,91395;-0,02551;51,91395
0,3032;52,34671;-0,02535;52,34671
0,3052;52,77785;-0,02518;52,77785
0,3073;53,20747;-0,02501;53,20747
0,3093;53,63557;-0,02485;53,63557
0,3114;54,06263;-0,02469;54,06263
0,3135;54,48876;-0,02452;54,48876
0,3155;54,91395;-0,02436;54,91395
0,3176;55,33822;-0,02419;55,33822
0,3197;55,76132;-0,02401;55,76132
0,3217;56,18267;-0,02368;56,18267
0,3238;56,60240;-0,02351;56,60240
0,3259;57,02049;-0,02335;57,02049
0,3279;57,43708;-0,02318;57,43708
0,3300;57,85273;-0,02302;57,85273
0,3321;58,26733;-0,02284;58,26733
0,3341;58,68124;-0,02267;58,68124
0,3362;59,09433;-0,02251;59,09433
0,3383;59,50637;-0,02234;59,50637
0,3403;59,91713;-0,02216;59,91713
0,3424;60,32626;-0,02183;60,32626
0,3445;60,73365;-0,02166;60,73365
0,3465;61,13964;-0,02149;61,13964
0,3486;61,54447;-0,02132;61,54447
0,3507;61,94860;-0,02115;61,94860
0,3527;62,35191;-0,02099;62,35191
0,3548;62,75441;-0,02081;62,75441
0,3568;63,15609;-0,02065;63,15609
0,3589;63,55638;-0,02048;63,55638
0,3612;63,99147;-0,02015;63,99147
0,3634;64,42435;-0,01997;64,42435
0,3657;64,85548;-0,01980;64,85548
0,3679;65,28498;-0,01964;65,28498
0,3702;65,71309;-0,01947;65,71309
0,3724;66,13980;-0,01914;66,13980
0,3747;66,56534;-0,01896;66,56534
0,3769;66,98972;-0,01879;66,98972
0,3792;67,41294;-0,01863;67,41294
0,3814;67,83464;-0,01846;67,83464
0,3837;68,25483;-0,01813;68,25483
0,3859;68,67363;-0,01796;68,67363
0,3882;69,09126;-0,01779;69,09126
0,3905;69,50784;-0,01763;69,50784
0,3927;69,92384;-0,01746;69,92384
0,3950;70,33938;-0,01714;70,33938
0,3972;70,75433;-0,01697;70,75433
0,3995;71,16870;-0,01680;71,16870
0,4017;71,58214;-0,01664;71,58214
0,4040;71,99465;-0,01648;71,99465
0,4062;72,40623;-0,01615;72,40623
0,4085;72,81722;-0,01598;72,81722
0,4107;73,22775;-0,01582;73,22775
0,4130;73,63816;-0,01566;73,63816
0,4152;74,04834;-0,01550;74,04834
0,4175;74,45818;-0,01517;74,45818
0,4197;74,86743;-0,01501;74,86743
0,4220;75,27586;-0,01484;75,27586
0,4242;75,68336;-0,01468;75,68336
0,4265;76,08994;-0,01452;76,08994
0,4288;76,49581;-0,01420;76,49581
0,4310;76,90075;-0,01404;76,90075
0,4333;77,30465;-0,01388;77,30465
0,4355;77,70715;-0,01372;77,70715
0,4378;78,10813;-0,01355;78,10813
0,4402;78,54089;-0,01324;78,54089
0,4426;78,97203;-0,01308;78,97203
0,4451;79,40188;-0,01293;79,40188
0,4475;79,83068;-0,01260;79,83068
0,4500;80,25867;-0,01244;80,25867
0,4524;80,68585;-0,01229;80,68585
0,4548;81,11197;-0,01213;81,11197
0,4573;81,53670;-0,01181;81,53670
0,4597;81,95969;-0,01166;81,95969
0,4622;82,38046;-0,01150;82,38046
0,4646;82,79879;-0,01118;82,79879
0,4671;83,21467;-0,01103;83,21467
0,4695;83,62834;-0,01088;83,62834
0,4719;84,04004;-0,01056;84,04004
0,4744;84,44987;-0,01041;84,44987
0,4768;84,85830;-0,01026;84,85830
0,4793;85,26569;-0,01010;85,26569
0,4817;85,67203;-0,00979;85,67203
0,4841;86,07744;-0,00964;86,07744
0,4866;86,48157;-0,00948;86,48157
0,4890;86,88442;-0,00918;86,88442
0,4915;87,28575;-0,00902;87,28575
0,4941;87,71630;-0,00887;87,71630
0,4967;88,14510;-0,00857;88,14510
0,4993;88,57263;-0,00842;88,57263
0,5020;88,99852;-0,00811;88,99852
0,5046;89,42279;-0,00795;89,42279
0,5072;89,84519;-0,00781;89,84519
0,5099;90,26550;-0,00750;90,26550
0,5125;90,68417;-0,00735;90,68417
0,5151;91,10157;-0,00705;91,10157
0,5177;91,51804;-0,00690;91,51804
0,5204;91,93392;-0,00675;91,93392
0,5230;92,34969;-0,00645;92,34969
0,5256;92,76511;-0,00630;92,76511
0,5283;93,17971;-0,00600;93,17971
0,5309;93,59315;-0,00585;93,59315
0,5335;94,00519;-0,00570;94,00519
0,5361;94,41584;-0,00541;94,41584
0,5388;94,82544;-0,00526;94,82544
0,5414;95,23411;-0,00496;95,23411
0,5440;95,64242;-0,00482;95,64242
0,5467;96,05028;-0,00467;96,05028
0,5493;96,45766;-0,00437;96,45766
0,5519;96,86424;-0,00422;96,86424
0,5545;97,26999;-0,00393;97,26999
0,5572;97,67505;-0,00378;97,67505
0,5598;98,07918;-0,00363;98,07918
0,5624;98,48261;-0,00333;98,48261
0,5651;98,88523;-0,00319;98,88523
0,5677;99,28668;-0,00290;99,28668
0,5703;99,68685;-0,00275;99,68685
0,5731;100,11425;-0,00260;100,11425
0,5759;100,54050;-0,00231;100,54050
0,5788;100,96569;-0,00216;100,96569
0,5816;101,38961;-0,00187;101,38961
0,5844;101,81236;-0,00172;101,81236
0,5872;102,23395;-0,00143;102,23395
0,5900;102,65495;-0,00128;102,65495
0,5928;103,07608;-0,00099;103,07608
0,5957;103,49708;-0,00084;103,49708
0,5985;103,91646;-0,00056;103,91646
0,6013;104,33211;-0,00041;104,33211
0,6041;104,74241;-0,00011;104,74241
0,6069;105,14688;0,00003;105,14688
0,6097;105,54705;0,00032;105,54705
0,6127;105,97074;0,00062;105,97074
0,6157;106,39279;0,00076;106,39279
0,6187;106,81368;0,00105;106,81368
0,6217;107,23375;0,00120;107,23375
0,6248;107,65301;0,00150;107,65301
0,6278;108,07146;0,00178;108,07146
0,6308;108,48885;0,00193;108,48885
0,6338;108,90567;0,00223;108,90567
0,6368;109,32248;0,00238;109,32248
0,6398;109,73953;0,00267;109,73953
0,6428;110,15681;0,00297;110,15681
0,6458;110,57421;0,00312;110,57421
0,6488;110,99161;0,00341;110,99161
0,6518;111,40842;0,00357;111,40842
0,6548;111,82524;0,00387;111,82524
0,6578;112,24194;0,00417;112,24194
0,6608;112,65922;0,00432;112,65922
0,6638;113,07731;0,00463;113,07731
0,6668;113,49541;0,00478;113,49541
0,6698;113,91013;0,00509;113,91013
0,6728;114,31775;0,00540;114,31775
0,6760;114,74097;0,00555;114,74097
0,6792;115,15196;0,00587;115,15196
0,6826;115,57250;0,00618;115,57250
0,6860;115,97907;0,00651;115,97907
0,6895;116,39647;0,00666;116,39647
0,6931;116,80642;0,00699;116,80642
0,6967;117,21462;0,00731;117,21462
0,7002;117,62736;0,00764;117,62736
0,7038;118,03696;0,00798;118,03696
0,7079;118,44121;0,00831;118,44121
0,7149;118,84359;0,00901;118,84359
1,2511;119,13947;0,60968;119,13947
1,2835;119,54034;0,64999;119,54034
1,2882;119,95366;0,65451;119,95366
1,2922;120,35534;0,65899;120,35534
1,2961;120,77193;0,66562;120,77193
1,3002;121,18292;0,67001;121,18292
1,3053;121,58402;0,67437;121,58402
1,3136;121,98582;0,68517;121,98582
1,3256;122,38623;0,69811;122,38623
1,3325;122,79326;0,70681;122,79326
1,3380;123,19355;0,71343;123,19355
1,3432;123,60781;0,72016;123,60781
1,3481;124,01508;0,72471;124,01508
1,3532;124,42037;0,73167;124,42037
1,3584;124,82240;0,73880;124,82240
1,3633;125,22688;0,74366;125,22688
1,3682;125,63613;0,75109;125,63613
1,3746;126,03711;0,75873;126,03711
1,5721;126,33101;1,36885;126,33101
1,6603;126,36244;1,97475;126,36244
1,7279;126,38281;2,57913;126,38281
1,7880;126,40050;3,19846;126,40050
1,8424;126,41750;3,80405;126,41750
1,8950;126,41517;4,40791;126,41517
1,9476;126,43589;5,01248;126,43589
2,0020;126,43694;5,62394;126,43694
2,0583;126,44392;6,22879;126,44392
2,1184;126,45696;6,83436;126,45696
2,1841;126,46452;7,44493;126,46452
2,1913;126,46743;7,49468;126,46743
2,1991;126,46499;7,57671;126,46499
