Part protocol
Network name;Part_OP10_MP-002_2020-08-26_15-06-32_0020_OK.csv
Protocol version;2.01.00

Index;Result information;Process values - curve related;Process values - EO related;Evaluation objects settings;Switch signal settings;Device information;Channel-X settings;Channel-Y settings;Cycle control settings;Evaluation settings;Trigger Y settings;Block settings;Measuring curve;Measuring points;Sequence;
Line;10;30;40;70;100;120;150;190;220;240;250;260;270;280;570;



Result information
Date;2020/08/26
Time;15:06:32
Cycle number;20
Total result;OK
Triggered switch signals
Part serial number;0020
Measuring program name;D57-Right
Measuring program number;2
Zero X offset;0,00;mm
Tara Y offset;0,0;kN









Process values - curve related
Block X;116,13;mm;XMIN-X;0,01;mm
Block Y;4,7;kN;XMIN-Y;0,0;kN
Ref X;-;mm;XMAX-X;116,13;mm
Peak-peak X;116,11;mm;XMAX-Y;4,7;kN
Peak-peak Y;4,8;kN;YMIN-X;0,43;mm
;;;YMIN-Y;0,0;kN
;;;YMAX-X;116,13;mm
;;;YMAX-Y;4,7;kN

Process values - EO related;Result;Entry;Exit;XMIN-X;XMIN-Y;XMAX-X;XMAX-Y;YMIN-Y;YMIN-X;YMAX-Y;YMAX-X
;;;;mm;kN;mm;kN;kN;mm;kN;mm
EO-01;OK;0,7;0,7;;;;;0,7;115,00;0,7;115,18;;;;;;
EO-02;OK;;116,11;116,09;2,3;116,10;3,2;2,3;116,09;;;;;;;;
EO-03;None;
EO-04;None;
























Evaluation objects settings;Reaction;X reference;Y-Reference;XMin;XMax;YMin;YMax;Entry;Exit;Curve part;Catch zone X;Catch zone Y
EO-01;UNI-BOX;ABSOLUTE;-;115,00;115,50;0,4;2,0;LEFT;RIGHT;ANY;+50%;+50%
EO-02;UNI-BOX;ABSOLUTE;-;115,40;117,10;2,3;3,3;ANY;ABOVE;ANY;+50%;+50%
EO-03;OFF
EO-04;OFF

























Switch signal settings;Channel;Threshold at;;Trigger from;Reference;Latch until
Type S1;OFF
Type S2;OFF

















Device information
Device type;maXYmos BL
Device type number;5867B1011
Device serial number;5182443
Firmware version;2.3.2 (r22473-BL_v2.3.x)
-
-
-
-
-
IP Address;10.0.0.18
Network name;OP10
Profibus address;10
-
-
-
Station name;OP10
Company name;
Comment;











Channel-X settings
Use the settings from global setup;True
Sensor-X type;Â±10V
Unit;mm
Used range from;0,00;mm
Used range to;200,00;mm
Decimal places;XXXX.XX
Scaling by;Teach-In
Point 1;0,00;mm;-0,350;%
Point 2;200,00;mm;10,000;%
Invert signal;FALSE
Filter;20 Hz
Test point;0,00;mm
Tolerance;2,00;mm
Enable sensor test by dig-input;FALSE
Zoom from;100,00;mm
Zoom to;120,00;mm























Channel-Y settings
Use the settings from global setup;True
Sensor-Y type;Strain Gage
Unit;kN
Used range from;0,0;kN
Used range to;20,0;kN
Decimal places;XXXXX.X
Scaling by;Teach-In
Point 1;0,0;kN;-0,01562;%
Point 2;20,0;kN;2,00000;%
Invert signal;FALSE
Filter;1 Hz
Piezo reset;-
Test point;0,0;kN
Tolerance;0,1;kN
Enable sensor test by dig-input;FALSE
Zoom from;0,0;kN
Zoom to;5,0;kN












Cycle control settings
Use the settings from global setup;True
Measuring function;Y (X)
Delta-X;Automatic
START condition;Dig-Input
STOP condition;Dig-Input
Cycle time out;20,00;s
Turning point RIGHT;YMAX
Turning point LEFT;NONE
Cut curve at;NONE










Evaluation settings
Capture only first NOK-EO for statistics;False
Hysteresis-X;0,0;%
Hysteresis-Y;100,0;%






Trigger Y settings
Threshold;1,8;kN
Value X at TRIGGER Y;0,00;mm
Approach from;BELOW






Block settings
Value X at block;XMAX
Block at;0,00;mm







Measuring curve
Number of measuring points;287
Ref. Graph on;ABSOLUTE
Curve segments;0;286;285;287;


Time;X(ABSOLUTE);Y;X (ABSOLUTE)


s;mm;kN;mm
0,0000;0,01341;-0,03543;0,01341
0,1161;0,43139;-0,03552;0,43139
0,1193;0,83587;-0,03552;0,83587
0,1216;1,23860;-0,03551;1,23860
0,1234;1,65251;-0,03551;1,65251
0,1251;2,08573;-0,03551;2,08573
0,1266;2,51558;-0,03550;2,51558
0,1279;2,92041;-0,03549;2,92041
0,1293;3,34409;-0,03549;3,34409
0,1306;3,77860;-0,03548;3,77860
0,1319;4,21625;-0,03547;4,21625
0,1332;4,65181;-0,03547;4,65181
0,1345;5,08119;-0,03547;5,08119
0,1358;5,50185;-0,03546;5,50185
0,1371;5,91145;-0,03546;5,91145
0,1386;6,36493;-0,03544;6,36493
0,1401;6,80269;-0,03542;6,80269
0,1417;7,22673;-0,03540;7,22673
0,1432;7,63958;-0,03537;7,63958
0,1447;8,04394;-0,03537;8,04394
0,1463;8,49126;-0,03535;8,49126
0,1480;8,93356;-0,03532;8,93356
0,1497;9,37389;-0,03528;9,37389
0,1514;9,81433;-0,03525;9,81433
0,1531;10,25675;-0,03521;10,25675
0,1548;10,70197;-0,03517;10,70197
0,1565;11,15068;-0,03511;11,15068
0,1580;11,55236;-0,03507;11,55236
0,1595;11,95614;-0,03507;11,95614
0,1610;12,36167;-0,03501;12,36167
0,1625;12,76801;-0,03495;12,76801
0,1640;13,17446;-0,03488;13,17446
0,1655;13,58034;-0,03482;13,58034
0,1670;13,98470;-0,03482;13,98470
0,1685;14,38685;-0,03474;14,38685
0,1702;14,83602;-0,03467;14,83602
0,1719;15,28123;-0,03459;15,28123
0,1736;15,72226;-0,03449;15,72226
0,1753;16,15886;-0,03440;16,15886
0,1769;16,59093;-0,03431;16,59093
0,1786;17,01822;-0,03420;17,01822
0,1803;17,44097;-0,03420;17,44097
0,1820;17,85930;-0,03410;17,85930
0,1837;18,27332;-0,03398;18,27332
0,1854;18,68362;-0,03386;18,68362
0,1871;19,09030;-0,03373;19,09030
0,1888;19,49397;-0,03360;19,49397
0,1905;19,89484;-0,03347;19,89484
0,1923;20,33726;-0,03333;20,33726
0,1942;20,77700;-0,03318;20,77700
0,1961;21,21454;-0,03303;21,21454
0,1980;21,65033;-0,03286;21,65033
0,1998;22,08472;-0,03271;22,08472
0,2017;22,51794;-0,03253;22,51794
0,2036;22,95036;-0,03236;22,95036
0,2055;23,38195;-0,03217;23,38195
0,2074;23,81285;-0,03199;23,81285
0,2092;24,24317;-0,03178;24,24317
0,2111;24,67325;-0,03159;24,67325
0,2130;25,10322;-0,03137;25,10322
0,2149;25,53331;-0,03116;25,53331
0,2167;25,96362;-0,03094;25,96362
0,2186;26,39406;-0,03071;26,39406
0,2205;26,82484;-0,03048;26,82484
0,2224;27,25574;-0,03024;27,25574
0,2243;27,68676;-0,02999;27,68676
0,2261;28,11812;-0,02974;28,11812
0,2280;28,54960;-0,02948;28,54960
0,2299;28,98097;-0,02922;28,98097
0,2318;29,41198;-0,02894;29,41198
0,2336;29,84242;-0,02866;29,84242
0,2355;30,27180;-0,02837;30,27180
0,2374;30,70014;-0,02809;30,70014
0,2393;31,12743;-0,02778;31,12743
0,2412;31,55367;-0,02749;31,55367
0,2430;31,97887;-0,02717;31,97887
0,2449;32,40325;-0,02686;32,40325
0,2468;32,82670;-0,02653;32,82670
0,2487;33,24934;-0,02620;33,24934
0,2505;33,67092;-0,02587;33,67092
0,2524;34,09181;-0,02552;34,09181
0,2543;34,51165;-0,02517;34,51165
0,2562;34,93056;-0,02482;34,93056
0,2580;35,34843;-0,02446;35,34843
0,2599;35,76524;-0,02409;35,76524
0,2618;36,18078;-0,02372;36,18078
0,2637;36,59515;-0,02334;36,59515
0,2656;37,00824;-0,02295;37,00824
0,2674;37,42017;-0,02256;37,42017
0,2693;37,83081;-0,02216;37,83081
0,2712;38,24029;-0,02177;38,24029
0,2731;38,64838;-0,02136;38,64838
0,2749;39,05519;-0,02094;39,05519
0,2768;39,46059;-0,02052;39,46059
0,2787;39,86472;-0,02010;39,86472
0,2806;40,26745;-0,01967;40,26745
0,2825;40,66902;-0,01923;40,66902
0,2843;41,06931;-0,01879;41,06931
0,2864;41,50835;-0,01835;41,50835
0,2885;41,94577;-0,01790;41,94577
0,2905;42,38156;-0,01744;42,38156
0,2926;42,81583;-0,01698;42,81583
0,2947;43,24848;-0,01651;43,24848
0,2967;43,67949;-0,01604;43,67949
0,2988;44,10876;-0,01508;44,10876
0,3009;44,53617;-0,01460;44,53617
0,3029;44,96160;-0,01411;44,96160
0,3050;45,38505;-0,01361;45,38505
0,3070;45,80652;-0,01312;45,80652
0,3091;46,22613;-0,01261;46,22613
0,3112;46,64376;-0,01210;46,64376
0,3132;47,05964;-0,01159;47,05964
0,3153;47,47367;-0,01108;47,47367
0,3174;47,88583;-0,01056;47,88583
0,3194;48,29612;-0,00951;48,29612
0,3215;48,70467;-0,00898;48,70467
0,3236;49,11171;-0,00844;49,11171
0,3256;49,51759;-0,00791;49,51759
0,3277;49,92218;-0,00737;49,92218
0,3298;50,32549;-0,00682;50,32549
0,3318;50,72729;-0,00628;50,72729
0,3339;51,12781;-0,00573;51,12781
0,3361;51,56313;-0,00518;51,56313
0,3384;51,99694;-0,00406;51,99694
0,3407;52,42924;-0,00350;52,42924
0,3429;52,86002;-0,00294;52,86002
0,3452;53,28941;-0,00237;53,28941
0,3474;53,71716;-0,00180;53,71716
0,3497;54,14352;-0,00065;54,14352
0,3519;54,56837;-0,00008;54,56837
0,3542;54,99205;0,00050;54,99205
0,3564;55,41457;0,00108;55,41457
0,3587;55,83604;0,00166;55,83604
0,3609;56,25623;0,00283;56,25623
0,3632;56,67514;0,00341;56,67514
0,3654;57,09312;0,00401;57,09312
0,3677;57,51017;0,00460;57,51017
0,3699;57,92664;0,00518;57,92664
0,3722;58,34287;0,00638;58,34287
0,3744;58,75899;0,00697;58,75899
0,3767;59,17511;0,00756;59,17511
0,3790;59,59134;0,00816;59,59134
0,3812;60,00722;0,00875;60,00722
0,3835;60,42287;0,00996;60,42287
0,3857;60,83818;0,01055;60,83818
0,3880;61,25325;0,01115;61,25325
0,3902;61,66797;0,01175;61,66797
0,3925;62,08245;0,01236;62,08245
0,3947;62,49647;0,01356;62,49647
0,3970;62,91003;0,01416;62,91003
0,3992;63,32300;0,01476;63,32300
0,4015;63,73551;0,01536;63,73551
0,4037;64,14756;0,01597;64,14756
0,4060;64,55902;0,01717;64,55902
0,4082;64,97001;0,01777;64,97001
0,4105;65,38031;0,01837;65,38031
0,4127;65,78968;0,01897;65,78968
0,4150;66,19788;0,01958;66,19788
0,4173;66,60526;0,02077;66,60526
0,4195;67,01195;0,02137;67,01195
0,4218;67,41806;0,02196;67,41806
0,4240;67,82370;0,02257;67,82370
0,4263;68,22876;0,02316;68,22876
0,4285;68,63301;0,02434;68,63301
0,4308;69,03655;0,02494;69,03655
0,4330;69,43905;0,02553;69,43905
0,4353;69,84050;0,02612;69,84050
0,4375;70,24067;0,02671;70,24067
0,4400;70,67273;0,02789;70,67273
0,4424;71,10340;0,02847;71,10340
0,4449;71,53255;0,02905;71,53255
0,4473;71,96008;0,03021;71,96008
0,4497;72,38620;0,03080;72,38620
0,4522;72,81094;0,03137;72,81094
0,4546;73,23450;0,03252;73,23450
0,4571;73,65679;0,03309;73,65679
0,4595;74,07791;0,03366;74,07791
0,4619;74,49763;0,03423;74,49763
0,4644;74,91608;0,03536;74,91608
0,4668;75,33278;0,03592;75,33278
0,4693;75,74785;0,03648;75,74785
0,4717;76,16094;0,03759;76,16094
0,4741;76,57228;0,03815;76,57228
0,4766;76,98235;0,03869;76,98235
0,4790;77,39136;0,03979;77,39136
0,4815;77,79933;0,04033;77,79933
0,4839;78,20625;0,04088;78,20625
0,4863;78,61190;0,04141;78,61190
0,4888;79,01626;0,04249;79,01626
0,4912;79,41910;0,04301;79,41910
0,4937;79,82055;0,04354;79,82055
0,4963;80,25110;0,04460;80,25110
0,4989;80,67991;0,04512;80,67991
0,5015;81,10685;0,04615;81,10685
0,5042;81,53205;0,04666;81,53205
0,5068;81,95538;0,04717;81,95538
0,5094;82,37720;0,04819;82,37720
0,5121;82,79762;0,04869;82,79762
0,5147;83,21688;0,04969;83,21688
0,5173;83,63521;0,05018;83,63521
0,5199;84,05226;0,05067;84,05226
0,5226;84,46814;0,05164;84,46814
0,5252;84,88286;0,05212;84,88286
0,5278;85,29665;0,05309;85,29665
0,5305;85,70986;0,05356;85,70986
0,5331;86,12272;0,05403;86,12272
0,5357;86,53511;0,05496;86,53511
0,5383;86,94704;0,05543;86,94704
0,5410;87,35826;0,05634;87,35826
0,5436;87,76868;0,05680;87,76868
0,5462;88,17839;0,05725;88,17839
0,5489;88,58764;0,05814;88,58764
0,5515;88,99654;0,05858;88,99654
0,5541;89,40521;0,05946;89,40521
0,5567;89,81341;0,05990;89,81341
0,5594;90,22103;0,06032;90,22103
0,5620;90,62784;0,06118;90,62784
0,5646;91,03406;0,06160;91,03406
0,5673;91,43947;0,06244;91,43947
0,5699;91,84383;0,06285;91,84383
0,5725;92,24726;0,06327;92,24726
0,5751;92,64941;0,06407;92,64941
0,5778;93,05028;0,06448;93,05028
0,5806;93,47815;0,06528;93,47815
0,5834;93,90404;0,06568;93,90404
0,5862;94,32796;0,06645;94,32796
0,5890;94,75048;0,06684;94,75048
0,5919;95,17183;0,06760;95,17183
0,5947;95,59191;0,06798;95,59191
0,5975;96,01035;0,06873;96,01035
0,6003;96,42728;0,06910;96,42728
0,6031;96,84294;0,06983;96,84294
0,6059;97,25777;0,07019;97,25777
0,6087;97,67226;0,07091;97,67226
0,6116;98,08628;0,07127;98,08628
0,6144;98,49995;0,07196;98,49995
0,6172;98,91304;0,07231;98,91304
0,6200;99,32532;0,07300;99,32532
0,6228;99,73620;0,07333;99,73620
0,6256;100,14580;0,07401;100,14580
0,6285;100,55435;0,07434;100,55435
0,6313;100,96197;0,07500;100,96197
0,6341;101,36901;0,07532;101,36901
0,6369;101,77535;0,07596;101,77535
0,6397;102,18122;0,07627;102,18122
0,6425;102,58640;0,07690;102,58640
0,6454;102,99087;0,07722;102,99087
0,6482;103,39500;0,07783;103,39500
0,6510;103,79890;0,07813;103,79890
0,6538;104,20291;0,07874;104,20291
0,6566;104,60704;0,07903;104,60704
0,6594;105,01128;0,07962;105,01128
0,6623;105,41541;0,07991;105,41541
0,6651;105,81896;0,08049;105,81896
0,6679;106,22192;0,08077;106,22192
0,6707;106,62360;0,08134;106,62360
0,6737;107,04798;0,08162;107,04798
0,6767;107,46422;0,08216;107,46422
0,6797;107,86800;0,08244;107,86800
0,6829;108,27899;0,08298;108,27899
0,6863;108,68708;0,08351;108,68708
0,6900;109,09656;0,08404;109,09656
0,6945;109,50930;0,08457;109,50930
0,7007;109,91145;0,08561;109,91145
0,7556;110,31150;0,09370;110,31150
0,7719;110,71202;0,09699;110,71202
0,7796;111,11406;0,09867;111,11406
0,7858;111,52040;0,10003;111,52040
0,7914;111,92604;0,10147;111,92604
0,7971;112,33401;0,10303;112,33401
0,8036;112,73976;0,10468;112,73976
1,0678;113,13982;0,36315;113,13982
1,2850;113,54872;0,65903;113,54872
1,2902;113,95925;0,66497;113,95925
1,2948;114,36536;0,66886;114,36536
1,2993;114,77786;0,67273;114,77786
1,3041;115,18071;0,67847;115,18071
1,3107;115,58612;0,68604;115,58612
1,3751;115,98629;0,75950;115,98629
1,5135;116,05974;1,37319;116,05974
1,5754;116,07987;1,98784;116,07987
1,6242;116,09431;2,60434;116,09431
1,6674;116,10420;3,21649;116,10420
1,7087;116,11584;3,83461;116,11584
1,7500;116,12317;4,46229;116,12317
1,7669;116,12690;4,71749;116,12690
1,7682;116,12725;4,71749;116,12725
