Part protocol
Network name;Part_OP10_MP-001_2020-08-25_14-18-16_0001_OK.csv
Protocol version;2.01.00

Index;Result information;Process values - curve related;Process values - EO related;Evaluation objects settings;Switch signal settings;Device information;Channel-X settings;Channel-Y settings;Cycle control settings;Evaluation settings;Trigger Y settings;Block settings;Measuring curve;Measuring points;Sequence;
Line;10;30;40;70;100;120;150;190;220;240;250;260;270;280;600;



Result information
Date;2020/08/25
Time;14:18:16
Cycle number;1
Total result;OK
Triggered switch signals
Part serial number;0001
Measuring program name;D57-Left
Measuring program number;1
Zero X offset;0,00;mm
Tara Y offset;0,0;kN









Process values - curve related
Block X;126,33;mm;XMIN-X;-0,11;mm
Block Y;7,4;kN;XMIN-Y;0,0;kN
Ref X;-;mm;XMAX-X;126,33;mm
Peak-peak X;126,44;mm;XMAX-Y;7,4;kN
Peak-peak Y;7,5;kN;YMIN-X;-0,11;mm
;;;YMIN-Y;0,0;kN
;;;YMAX-X;126,33;mm
;;;YMAX-Y;7,4;kN

Process values - EO related;Result;Entry;Exit;XMIN-X;XMIN-Y;XMAX-X;XMAX-Y;YMIN-Y;YMIN-X;YMAX-Y;YMAX-X
;;;;mm;kN;mm;kN;kN;mm;kN;mm
EO-01;OK;0,7;0,7;;;;;0,7;124,50;0,7;125,52;;;;;;
EO-02;OK;126,29;126,31;126,29;4,5;126,30;5,0;;;;;;;;;;
EO-03;None;
EO-04;None;
























Evaluation objects settings;Reaction;X reference;Y-Reference;XMin;XMax;YMin;YMax;Entry;Exit;Curve part;Catch zone X;Catch zone Y
EO-01;UNI-BOX;ABSOLUTE;-;124,50;125,70;0,5;3,0;LEFT;RIGHT;ANY;+50%;+50%
EO-02;UNI-BOX;ABSOLUTE;-;125,80;127,20;4,5;5,5;BELOW;ABOVE;ANY;+50%;+50%
EO-03;OFF
EO-04;OFF

























Switch signal settings;Channel;Threshold at;;Trigger from;Reference;Latch until
Type S1;OFF
Type S2;OFF

















Device information
Device type;maXYmos BL
Device type number;5867B1011
Device serial number;5182443
Firmware version;2.3.2 (r22473-BL_v2.3.x)
-
-
-
-
-
IP Address;10.0.0.18
Network name;OP10
Profibus address;10
-
-
-
Station name;OP10
Company name;
Comment;











Channel-X settings
Use the settings from global setup;True
Sensor-X type;Â±10V
Unit;mm
Used range from;0,00;mm
Used range to;200,00;mm
Decimal places;XXXX.XX
Scaling by;Teach-In
Point 1;0,00;mm;-0,350;%
Point 2;200,00;mm;10,000;%
Invert signal;FALSE
Filter;20 Hz
Test point;0,00;mm
Tolerance;2,00;mm
Enable sensor test by dig-input;FALSE
Zoom from;110,00;mm
Zoom to;133,11;mm























Channel-Y settings
Use the settings from global setup;True
Sensor-Y type;Strain Gage
Unit;kN
Used range from;0,0;kN
Used range to;20,0;kN
Decimal places;XXXXX.X
Scaling by;Teach-In
Point 1;0,0;kN;-0,01562;%
Point 2;20,0;kN;2,00000;%
Invert signal;FALSE
Filter;1 Hz
Piezo reset;-
Test point;0,0;kN
Tolerance;0,1;kN
Enable sensor test by dig-input;FALSE
Zoom from;0,0;kN
Zoom to;6,0;kN












Cycle control settings
Use the settings from global setup;True
Measuring function;Y (X)
Delta-X;Automatic
START condition;Dig-Input
STOP condition;Dig-Input
Cycle time out;20,00;s
Turning point RIGHT;YMAX
Turning point LEFT;NONE
Cut curve at;NONE










Evaluation settings
Capture only first NOK-EO for statistics;False
Hysteresis-X;0,0;%
Hysteresis-Y;100,0;%






Trigger Y settings
Threshold;1,9;kN
Value X at TRIGGER Y;0,00;mm
Approach from;BELOW






Block settings
Value X at block;XMAX
Block at;0,00;mm







Measuring curve
Number of measuring points;315
Ref. Graph on;ABSOLUTE
Curve segments;0;314;313;315;


Time;X(ABSOLUTE);Y;X (ABSOLUTE)


s;mm;kN;mm
0,0000;-0,10694;-0,04613;-0,10694
0,1001;0,29369;-0,04612;0,29369
0,1041;0,71447;-0,04612;0,71447
0,1069;1,13419;-0,04612;1,13419
0,1091;1,54251;-0,04612;1,54251
0,1112;1,97236;-0,04611;1,97236
0,1131;2,40815;-0,04611;2,40815
0,1148;2,83614;-0,04611;2,83614
0,1163;3,24434;-0,04610;3,24434
0,1178;3,67815;-0,04610;3,67815
0,1193;4,13652;-0,04610;4,13652
0,1206;4,55729;-0,04610;4,55729
0,1219;4,99564;-0,04609;4,99564
0,1232;5,44912;-0,04609;5,44912
0,1245;5,91354;-0,04609;5,91354
0,1256;6,31534;-0,04608;6,31534
0,1268;6,71609;-0,04608;6,71609
0,1281;7,17621;-0,04607;7,17621
0,1294;7,62329;-0,04606;7,62329
0,1307;8,05407;-0,04606;8,05407
0,1320;8,46658;-0,04606;8,46658
0,1335;8,91517;-0,04606;8,91517
0,1350;9,33897;-0,04604;9,33897
0,1367;9,78675;-0,04603;9,78675
0,1384;10,20612;-0,04603;10,20612
0,1403;10,64447;-0,04602;10,64447
0,1422;11,06257;-0,04600;11,06257
0,1440;11,46902;-0,04599;11,46902
0,1459;11,86989;-0,04597;11,86989
0,1480;12,30917;-0,04593;12,30917
0,1499;12,71062;-0,04591;12,71062
0,1517;13,11743;-0,04589;13,11743
0,1536;13,53180;-0,04586;13,53180
0,1555;13,95432;-0,04583;13,95432
0,1574;14,38405;-0,04581;14,38405
0,1593;14,82042;-0,04577;14,82042
0,1611;15,26401;-0,04574;15,26401
0,1628;15,66965;-0,04574;15,66965
0,1645;16,08088;-0,04570;16,08088
0,1662;16,49676;-0,04567;16,49676
0,1679;16,91649;-0,04563;16,91649
0,1696;17,34005;-0,04558;17,34005
0,1713;17,76781;-0,04554;17,76781
0,1730;18,19987;-0,04549;18,19987
0,1746;18,63566;-0,04544;18,63566
0,1763;19,07447;-0,04539;19,07447
0,1780;19,51573;-0,04534;19,51573
0,1797;19,95979;-0,04534;19,95979
0,1814;20,40698;-0,04528;20,40698
0,1829;20,80715;-0,04522;20,80715
0,1844;21,20930;-0,04516;21,20930
0,1859;21,61285;-0,04509;21,61285
0,1874;22,01732;-0,04503;22,01732
0,1889;22,42262;-0,04503;22,42262
0,1904;22,82907;-0,04496;22,82907
0,1919;23,23657;-0,04489;23,23657
0,1934;23,64489;-0,04482;23,64489
0,1949;24,05379;-0,04474;24,05379
0,1964;24,46258;-0,04474;24,46258
0,1979;24,87090;-0,04466;24,87090
0,1994;25,27910;-0,04457;25,27910
0,2009;25,68695;-0,04449;25,68695
0,2024;26,09469;-0,04441;26,09469
0,2039;26,50184;-0,04441;26,50184
0,2054;26,90806;-0,04432;26,90806
0,2069;27,31289;-0,04422;27,31289
0,2084;27,71632;-0,04412;27,71632
0,2099;28,11835;-0,04403;28,11835
0,2114;28,51876;-0,04403;28,51876
0,2131;28,96735;-0,04393;28,96735
0,2148;29,41326;-0,04382;29,41326
0,2165;29,85627;-0,04372;29,85627
0,2182;30,29624;-0,04361;30,29624
0,2199;30,73320;-0,04350;30,73320
0,2216;31,16712;-0,04339;31,16712
0,2233;31,59802;-0,04328;31,59802
0,2250;32,02566;-0,04316;32,02566
0,2266;32,44981;-0,04316;32,44981
0,2283;32,87058;-0,04304;32,87058
0,2300;33,28833;-0,04292;33,28833
0,2317;33,70317;-0,04280;33,70317
0,2334;34,11509;-0,04267;34,11509
0,2351;34,52423;-0,04255;34,52423
0,2368;34,93068;-0,04242;34,93068
0,2385;35,33458;-0,04229;35,33458
0,2402;35,73591;-0,04215;35,73591
0,2420;36,17868;-0,04202;36,17868
0,2439;36,61843;-0,04188;36,61843
0,2458;37,05503;-0,04174;37,05503
0,2477;37,48884;-0,04160;37,48884
0,2496;37,91962;-0,04146;37,91962
0,2514;38,34784;-0,04133;38,34784
0,2533;38,77351;-0,04118;38,77351
0,2552;39,19661;-0,04104;39,19661
0,2571;39,61750;-0,04089;39,61750
0,2589;40,03617;-0,04074;40,03617
0,2608;40,45299;-0,04059;40,45299
0,2627;40,86806;-0,04044;40,86806
0,2646;41,28138;-0,04029;41,28138
0,2665;41,69331;-0,04013;41,69331
0,2683;42,10384;-0,03998;42,10384
0,2702;42,51320;-0,03983;42,51320
0,2721;42,92152;-0,03967;42,92152
0,2740;43,32879;-0,03951;43,32879
0,2758;43,73502;-0,03935;43,73502
0,2777;44,14031;-0,03920;44,14031
0,2796;44,54479;-0,03903;44,54479
0,2815;44,94856;-0,03887;44,94856
0,2833;45,35164;-0,03871;45,35164
0,2852;45,75414;-0,03855;45,75414
0,2871;46,15606;-0,03838;46,15606
0,2890;46,55739;-0,03822;46,55739
0,2909;46,95826;-0,03806;46,95826
0,2927;47,35855;-0,03789;47,35855
0,2948;47,79830;-0,03772;47,79830
0,2969;48,23734;-0,03756;48,23734
0,2989;48,67557;-0,03739;48,67557
0,3010;49,11311;-0,03722;49,11311
0,3031;49,54994;-0,03706;49,54994
0,3051;49,98608;-0,03688;49,98608
0,3072;50,42175;-0,03672;50,42175
0,3093;50,85707;-0,03655;50,85707
0,3113;51,29205;-0,03621;51,29205
0,3134;51,72702;-0,03603;51,72702
0,3155;52,16199;-0,03586;52,16199
0,3175;52,59662;-0,03569;52,59662
0,3196;53,03113;-0,03552;53,03113
0,3216;53,46540;-0,03535;53,46540
0,3237;53,89944;-0,03517;53,89944
0,3258;54,33337;-0,03500;54,33337
0,3278;54,76718;-0,03483;54,76718
0,3299;55,20099;-0,03465;55,20099
0,3320;55,63433;-0,03431;55,63433
0,3340;56,06721;-0,03413;56,06721
0,3361;56,49927;-0,03396;56,49927
0,3382;56,93052;-0,03379;56,93052
0,3402;57,36107;-0,03361;57,36107
0,3423;57,79115;-0,03344;57,79115
0,3444;58,22089;-0,03326;58,22089
0,3464;58,65039;-0,03309;58,65039
0,3485;59,08001;-0,03291;59,08001
0,3506;59,50963;-0,03274;59,50963
0,3526;59,93913;-0,03239;59,93913
0,3547;60,36875;-0,03222;60,36875
0,3568;60,79837;-0,03204;60,79837
0,3588;61,22799;-0,03186;61,22799
0,3609;61,65737;-0,03169;61,65737
0,3629;62,08641;-0,03151;62,08641
0,3650;62,51463;-0,03135;62,51463
0,3671;62,94192;-0,03117;62,94192
0,3691;63,36840;-0,03099;63,36840
0,3712;63,79394;-0,03082;63,79394
0,3733;64,21844;-0,03047;64,21844
0,3753;64,64178;-0,03029;64,64178
0,3774;65,06383;-0,03012;65,06383
0,3795;65,48414;-0,02995;65,48414
0,3815;65,90293;-0,02977;65,90293
0,3836;66,32009;-0,02960;66,32009
0,3857;66,73551;-0,02943;66,73551
0,3877;67,14953;-0,02925;67,14953
0,3898;67,56216;-0,02908;67,56216
0,3919;67,97315;-0,02890;67,97315
0,3939;68,38229;-0,02856;68,38229
0,3960;68,78956;-0,02838;68,78956
0,3981;69,19462;-0,02822;69,19462
0,4001;69,59770;-0,02804;69,59770
0,4022;69,99868;-0,02787;69,99868
0,4044;70,43377;-0,02770;70,43377
0,4067;70,86688;-0,02753;70,86688
0,4089;71,29790;-0,02719;71,29790
0,4112;71,72682;-0,02702;71,72682
0,4135;72,15365;-0,02685;72,15365
0,4157;72,57779;-0,02668;72,57779
0,4180;72,99926;-0,02651;72,99926
0,4202;73,41771;-0,02617;73,41771
0,4225;73,83324;-0,02601;73,83324
0,4247;74,24610;-0,02584;74,24610
0,4270;74,65652;-0,02567;74,65652
0,4292;75,06425;-0,02551;75,06425
0,4315;75,46943;-0,02517;75,46943
0,4337;75,87204;-0,02501;75,87204
0,4360;76,27210;-0,02484;76,27210
0,4384;76,70241;-0,02467;76,70241
0,4409;77,12970;-0,02435;77,12970
0,4433;77,55374;-0,02418;77,55374
0,4457;77,97463;-0,02402;77,97463
0,4482;78,39237;-0,02386;78,39237
0,4506;78,80721;-0,02353;78,80721
0,4531;79,21913;-0,02338;79,21913
0,4555;79,62850;-0,02322;79,62850
0,4579;80,03507;-0,02289;80,03507
0,4604;80,43862;-0,02274;80,43862
0,4628;80,83879;-0,02258;80,83879
0,4655;81,26585;-0,02227;81,26585
0,4681;81,68930;-0,02211;81,68930
0,4707;82,10995;-0,02195;82,10995
0,4733;82,52793;-0,02165;82,52793
0,4760;82,94335;-0,02149;82,94335
0,4786;83,35516;-0,02118;83,35516
0,4812;83,76301;-0,02102;83,76301
0,4839;84,16621;-0,02088;84,16621
0,4867;84,59362;-0,02057;84,59362
0,4895;85,01707;-0,02042;85,01707
0,4923;85,43773;-0,02013;85,43773
0,4951;85,85617;-0,01998;85,85617
0,4979;86,27310;-0,01968;86,27310
0,5008;86,68864;-0,01953;86,68864
0,5036;87,10266;-0,01925;87,10266
0,5064;87,51575;-0,01910;87,51575
0,5092;87,92837;-0,01881;87,92837
0,5120;88,34135;-0,01866;88,34135
0,5148;88,75490;-0,01839;88,75490
0,5176;89,16951;-0,01824;89,16951
0,5205;89,58469;-0,01796;89,58469
0,5233;90,00046;-0,01782;90,00046
0,5261;90,41669;-0,01754;90,41669
0,5289;90,83398;-0,01740;90,83398
0,5317;91,25312;-0,01712;91,25312
0,5345;91,67482;-0,01698;91,67482
0,5374;92,09955;-0,01670;92,09955
0,5402;92,52743;-0,01657;92,52743
0,5428;92,92957;-0,01629;92,92957
0,5454;93,33440;-0,01616;93,33440
0,5481;93,74237;-0,01589;93,74237
0,5507;94,15383;-0,01575;94,15383
0,5533;94,56913;-0,01561;94,56913
0,5559;94,98851;-0,01534;94,98851
0,5586;95,41208;-0,01520;95,41208
0,5612;95,83948;-0,01492;95,83948
0,5636;96,23965;-0,01479;96,23965
0,5661;96,64262;-0,01466;96,64262
0,5685;97,04814;-0,01438;97,04814
0,5710;97,45646;-0,01425;97,45646
0,5734;97,86757;-0,01411;97,86757
0,5758;98,28159;-0,01397;98,28159
0,5783;98,69841;-0,01369;98,69841
0,5807;99,11790;-0,01355;99,11790
0,5832;99,53996;-0,01342;99,53996
0,5856;99,96387;-0,01315;99,96387
0,5881;100,38942;-0,01301;100,38942
0,5905;100,81566;-0,01287;100,81566
0,5929;101,24190;-0,01258;101,24190
0,5954;101,66721;-0,01244;101,66721
0,5978;102,09090;-0,01230;102,09090
0,6003;102,51202;-0,01217;102,51202
0,6027;102,92930;-0,01189;102,92930
0,6051;103,34053;-0,01174;103,34053
0,6076;103,74407;-0,01160;103,74407
0,6102;104,16927;-0,01131;104,16927
0,6128;104,58399;-0,01118;104,58399
0,6155;104,98823;-0,01089;104,98823
0,6183;105,41029;-0,01074;105,41029
0,6211;105,82105;-0,01045;105,82105
0,6241;106,24555;-0,01031;106,24555
0,6271;106,65480;-0,01002;106,65480
0,6303;107,07313;-0,00987;107,07313
0,6335;107,47539;-0,00958;107,47539
0,6369;107,88546;-0,00929;107,88546
0,6404;108,30367;-0,00899;108,30367
0,6440;108,70931;-0,00869;108,70931
0,6478;109,12601;-0,00839;109,12601
0,6515;109,53537;-0,00809;109,53537
0,6553;109,94090;-0,00779;109,94090
0,6590;110,34538;-0,00748;110,34538
0,6628;110,75067;-0,00717;110,75067
0,6665;111,15817;-0,00685;111,15817
0,6703;111,56917;-0,00654;111,56917
0,6740;111,98261;-0,00621;111,98261
0,6778;112,39605;-0,00589;112,39605
0,6815;112,80914;-0,00557;112,80914
0,6853;113,22234;-0,00522;113,22234
0,6891;113,63625;-0,00489;113,63625
0,6928;114,05271;-0,00454;114,05271
0,6966;114,47151;-0,00419;114,47151
0,7003;114,89088;-0,00383;114,89088
0,7041;115,30886;-0,00346;115,30886
0,7078;115,72289;-0,00309;115,72289
0,7116;116,13260;-0,00271;116,13260
0,7153;116,54150;-0,00233;116,54150
0,7191;116,95645;-0,00193;116,95645
0,7227;117,36372;-0,00153;117,36372
0,7262;117,78019;-0,00111;117,78019
0,7302;118,19188;-0,00070;118,19188
0,7360;118,59892;-0,00004;118,59892
1,2726;118,95684;0,60204;118,95684
1,2908;119,35934;0,62276;119,35934
1,2955;119,77359;0,62947;119,77359
1,2996;120,19181;0,63388;120,19181
1,3035;120,60594;0,63825;120,60594
1,3075;121,01659;0,64257;121,01659
1,3118;121,42200;0,64687;121,42200
1,3174;121,82752;0,65324;121,82752
1,3247;122,22828;0,66164;122,22828
1,3332;122,63054;0,67204;122,63054
1,3394;123,03886;0,67825;123,03886
1,3439;123,45405;0,68446;123,45405
1,3478;123,86260;0,68861;123,86260
1,3516;124,27871;0,69276;124,27871
1,3552;124,70007;0,69690;124,70007
1,3587;125,12014;0,69899;125,12014
1,3627;125,52474;0,70524;125,52474
1,3687;125,93143;0,71153;125,93143
1,5917;126,20694;1,31908;126,20694
1,6781;126,23895;1,93149;126,23895
1,7419;126,25594;2,53309;126,25594
1,7982;126,26898;3,14548;126,26898
1,8508;126,27933;3,75984;126,27933
1,9015;126,29039;4,36846;126,29039
1,9522;126,30005;4,97416;126,30005
2,0047;126,30913;5,58392;126,30913
2,0592;126,31693;6,18435;126,31693
2,1193;126,32566;6,80239;126,32566
2,1831;126,33264;7,40450;126,33264
2,1868;126,33276;7,43817;126,33276
2,1870;126,33288;7,43817;126,33288
