Part protocol
Network name;Part_OP10_MP-002_2020-08-26_16-23-01_0040_OK.csv
Protocol version;2.01.00

Index;Result information;Process values - curve related;Process values - EO related;Evaluation objects settings;Switch signal settings;Device information;Channel-X settings;Channel-Y settings;Cycle control settings;Evaluation settings;Trigger Y settings;Block settings;Measuring curve;Measuring points;Sequence;
Line;10;30;40;70;100;120;150;190;220;240;250;260;270;280;570;



Result information
Date;2020/08/26
Time;16:23:01
Cycle number;40
Total result;OK
Triggered switch signals
Part serial number;0040
Measuring program name;D57-Right
Measuring program number;2
Zero X offset;0,00;mm
Tara Y offset;0,0;kN









Process values - curve related
Block X;116,07;mm;XMIN-X;-0,07;mm
Block Y;4,8;kN;XMIN-Y;0,0;kN
Ref X;-;mm;XMAX-X;116,07;mm
Peak-peak X;116,13;mm;XMAX-Y;4,8;kN
Peak-peak Y;4,9;kN;YMIN-X;-0,07;mm
;;;YMIN-Y;0,0;kN
;;;YMAX-X;116,07;mm
;;;YMAX-Y;4,8;kN

Process values - EO related;Result;Entry;Exit;XMIN-X;XMIN-Y;XMAX-X;XMAX-Y;YMIN-Y;YMIN-X;YMAX-Y;YMAX-X
;;;;mm;kN;mm;kN;kN;mm;kN;mm
EO-01;OK;0,7;0,7;;;;;0,7;115,00;0,7;115,47;;;;;;
EO-02;OK;;116,04;116,02;2,3;116,04;3,1;2,3;116,02;;;;;;;;
EO-03;None;
EO-04;None;
























Evaluation objects settings;Reaction;X reference;Y-Reference;XMin;XMax;YMin;YMax;Entry;Exit;Curve part;Catch zone X;Catch zone Y
EO-01;UNI-BOX;ABSOLUTE;-;115,00;115,50;0,4;2,0;LEFT;RIGHT;ANY;+50%;+50%
EO-02;UNI-BOX;ABSOLUTE;-;115,40;117,10;2,3;3,3;ANY;ABOVE;ANY;+50%;+50%
EO-03;OFF
EO-04;OFF

























Switch signal settings;Channel;Threshold at;;Trigger from;Reference;Latch until
Type S1;OFF
Type S2;OFF

















Device information
Device type;maXYmos BL
Device type number;5867B1011
Device serial number;5182443
Firmware version;2.3.2 (r22473-BL_v2.3.x)
-
-
-
-
-
IP Address;10.0.0.18
Network name;OP10
Profibus address;10
-
-
-
Station name;OP10
Company name;
Comment;











Channel-X settings
Use the settings from global setup;True
Sensor-X type;Â±10V
Unit;mm
Used range from;0,00;mm
Used range to;200,00;mm
Decimal places;XXXX.XX
Scaling by;Teach-In
Point 1;0,00;mm;-0,350;%
Point 2;200,00;mm;10,000;%
Invert signal;FALSE
Filter;20 Hz
Test point;0,00;mm
Tolerance;2,00;mm
Enable sensor test by dig-input;FALSE
Zoom from;100,00;mm
Zoom to;120,00;mm























Channel-Y settings
Use the settings from global setup;True
Sensor-Y type;Strain Gage
Unit;kN
Used range from;0,0;kN
Used range to;20,0;kN
Decimal places;XXXXX.X
Scaling by;Teach-In
Point 1;0,0;kN;-0,01562;%
Point 2;20,0;kN;2,00000;%
Invert signal;FALSE
Filter;1 Hz
Piezo reset;-
Test point;0,0;kN
Tolerance;0,1;kN
Enable sensor test by dig-input;FALSE
Zoom from;0,0;kN
Zoom to;5,0;kN












Cycle control settings
Use the settings from global setup;True
Measuring function;Y (X)
Delta-X;Automatic
START condition;Dig-Input
STOP condition;Dig-Input
Cycle time out;20,00;s
Turning point RIGHT;YMAX
Turning point LEFT;NONE
Cut curve at;NONE










Evaluation settings
Capture only first NOK-EO for statistics;False
Hysteresis-X;0,0;%
Hysteresis-Y;100,0;%






Trigger Y settings
Threshold;1,8;kN
Value X at TRIGGER Y;0,00;mm
Approach from;BELOW






Block settings
Value X at block;XMAX
Block at;0,00;mm







Measuring curve
Number of measuring points;288
Ref. Graph on;ABSOLUTE
Curve segments;0;287;286;288;


Time;X(ABSOLUTE);Y;X (ABSOLUTE)


s;mm;kN;mm
0,0000;-0,06702;-0,03473;-0,06702
0,0921;0,34014;-0,03473;0,34014
0,0955;0,76522;-0,03473;0,76522
0,0978;1,17097;-0,03472;1,17097
0,0996;1,58953;-0,03471;1,58953
0,1013;2,02975;-0,03471;2,02975
0,1028;2,46775;-0,03471;2,46775
0,1041;2,88060;-0,03470;2,88060
0,1055;3,31302;-0,03468;3,31302
0,1068;3,75672;-0,03468;3,75672
0,1081;4,20461;-0,03467;4,20461
0,1094;4,65122;-0,03466;4,65122
0,1107;5,09295;-0,03464;5,09295
0,1120;5,52664;-0,03464;5,52664
0,1133;5,95021;-0,03462;5,95021
0,1147;6,36248;-0,03460;6,36248
0,1160;6,76358;-0,03460;6,76358
0,1175;7,20985;-0,03458;7,20985
0,1190;7,64587;-0,03455;7,64587
0,1205;8,07386;-0,03452;8,07386
0,1220;8,49591;-0,03449;8,49591
0,1235;8,91424;-0,03449;8,91424
0,1250;9,33059;-0,03446;9,33059
0,1265;9,74694;-0,03441;9,74694
0,1280;10,16457;-0,03437;10,16457
0,1295;10,58429;-0,03433;10,58429
0,1310;11,00658;-0,03433;11,00658
0,1325;11,43119;-0,03427;11,43119
0,1340;11,85790;-0,03422;11,85790
0,1355;12,28612;-0,03416;12,28612
0,1370;12,71505;-0,03410;12,71505
0,1385;13,14408;-0,03410;13,14408
0,1400;13,57230;-0,03402;13,57230
0,1415;13,99913;-0,03396;13,99913
0,1430;14,42374;-0,03387;14,42374
0,1445;14,84568;-0,03379;14,84568
0,1460;15,26412;-0,03379;15,26412
0,1475;15,67861;-0,03371;15,67861
0,1490;16,08891;-0,03361;16,08891
0,1505;16,49478;-0,03351;16,49478
0,1520;16,89600;-0,03341;16,89600
0,1537;17,34180;-0,03341;17,34180
0,1554;17,78166;-0,03331;17,78166
0,1571;18,21570;-0,03319;18,21570
0,1588;18,64439;-0,03308;18,64439
0,1605;19,06784;-0,03295;19,06784
0,1622;19,48652;-0,03282;19,48652
0,1639;19,90089;-0,03268;19,90089
0,1655;20,31142;-0,03254;20,31142
0,1672;20,71834;-0,03239;20,71834
0,1689;21,12200;-0,03224;21,12200
0,1706;21,52264;-0,03224;21,52264
0,1725;21,96436;-0,03209;21,96436
0,1744;22,40283;-0,03192;22,40283
0,1762;22,83803;-0,03175;22,83803
0,1781;23,27033;-0,03158;23,27033
0,1800;23,69972;-0,03139;23,69972
0,1819;24,12642;-0,03121;24,12642
0,1838;24,55046;-0,03101;24,55046
0,1856;24,97204;-0,03081;24,97204
0,1875;25,39130;-0,03061;25,39130
0,1894;25,80847;-0,03039;25,80847
0,1913;26,22389;-0,03017;26,22389
0,1931;26,63779;-0,02995;26,63779
0,1950;27,05065;-0,02972;27,05065
0,1969;27,46269;-0,02948;27,46269
0,1988;27,87380;-0,02924;27,87380
0,2006;28,28433;-0,02899;28,28433
0,2025;28,69428;-0,02873;28,69428
0,2044;29,10365;-0,02847;29,10365
0,2063;29,51266;-0,02820;29,51266
0,2082;29,92133;-0,02792;29,92133
0,2100;30,32977;-0,02764;30,32977
0,2119;30,73797;-0,02736;30,73797
0,2138;31,14594;-0,02706;31,14594
0,2157;31,55391;-0,02676;31,55391
0,2175;31,96176;-0,02646;31,96176
0,2194;32,36973;-0,02614;32,36973
0,2213;32,77758;-0,02583;32,77758
0,2232;33,18555;-0,02551;33,18555
0,2251;33,59364;-0,02517;33,59364
0,2269;34,00184;-0,02484;34,00184
0,2288;34,41004;-0,02450;34,41004
0,2307;34,81836;-0,02414;34,81836
0,2326;35,22656;-0,02379;35,22656
0,2344;35,63465;-0,02343;35,63465
0,2363;36,04273;-0,02306;36,04273
0,2382;36,45070;-0,02269;36,45070
0,2401;36,85855;-0,02231;36,85855
0,2420;37,26617;-0,02193;37,26617
0,2438;37,67368;-0,02154;37,67368
0,2457;38,08083;-0,02115;38,08083
0,2476;38,48775;-0,02075;38,48775
0,2495;38,89456;-0,02034;38,89456
0,2513;39,30125;-0,01992;39,30125
0,2532;39,70782;-0,01951;39,70782
0,2551;40,11428;-0,01909;40,11428
0,2570;40,52050;-0,01866;40,52050
0,2588;40,92637;-0,01823;40,92637
0,2607;41,33166;-0,01778;41,33166
0,2626;41,73603;-0,01734;41,73603
0,2645;42,13945;-0,01690;42,13945
0,2664;42,54172;-0,01644;42,54172
0,2682;42,94306;-0,01598;42,94306
0,2701;43,34311;-0,01552;43,34311
0,2722;43,78181;-0,01457;43,78181
0,2742;44,21876;-0,01409;44,21876
0,2763;44,65362;-0,01361;44,65362
0,2784;45,08626;-0,01313;45,08626
0,2804;45,51669;-0,01264;45,51669
0,2825;45,94492;-0,01214;45,94492
0,2846;46,37128;-0,01164;46,37128
0,2866;46,79566;-0,01114;46,79566
0,2887;47,21818;-0,01063;47,21818
0,2908;47,63883;-0,01011;47,63883
0,2928;48,05774;-0,00907;48,05774
0,2949;48,47479;-0,00856;48,47479
0,2970;48,88998;-0,00803;48,88998
0,2990;49,30342;-0,00749;49,30342
0,3011;49,71499;-0,00696;49,71499
0,3032;50,12483;-0,00643;50,12483
0,3052;50,53268;-0,00588;50,53268
0,3073;50,93878;-0,00533;50,93878
0,3093;51,34303;-0,00479;51,34303
0,3114;51,74553;-0,00424;51,74553
0,3135;52,14651;-0,00313;52,14651
0,3157;52,58230;-0,00258;52,58230
0,3180;53,01634;-0,00201;53,01634
0,3202;53,44852;-0,00145;53,44852
0,3225;53,87907;-0,00088;53,87907
0,3247;54,30788;0,00026;54,30788
0,3270;54,73517;0,00083;54,73517
0,3292;55,16129;0,00140;55,16129
0,3315;55,58614;0,00198;55,58614
0,3338;56,00994;0,00256;56,00994
0,3360;56,43246;0,00372;56,43246
0,3383;56,85358;0,00430;56,85358
0,3405;57,27377;0,00489;57,27377
0,3428;57,69326;0,00548;57,69326
0,3450;58,11229;0,00607;58,11229
0,3473;58,53120;0,00725;58,53120
0,3495;58,94988;0,00784;58,94988
0,3518;59,36856;0,00843;59,36856
0,3540;59,78700;0,00902;59,78700
0,3563;60,20533;0,00962;60,20533
0,3585;60,62354;0,01081;60,62354
0,3608;61,04164;0,01141;61,04164
0,3630;61,45973;0,01200;61,45973
0,3653;61,87771;0,01261;61,87771
0,3675;62,29523;0,01320;62,29523
0,3698;62,71204;0,01440;62,71204
0,3721;63,12816;0,01499;63,12816
0,3743;63,54323;0,01560;63,54323
0,3766;63,95748;0,01620;63,95748
0,3788;64,37080;0,01680;64,37080
0,3811;64,78320;0,01799;64,78320
0,3833;65,19466;0,01859;65,19466
0,3856;65,60507;0,01919;65,60507
0,3878;66,01455;0,01979;66,01455
0,3901;66,42276;0,02038;66,42276
0,3923;66,82991;0,02158;66,82991
0,3946;67,23602;0,02217;67,23602
0,3968;67,64131;0,02276;67,64131
0,3991;68,04602;0,02336;68,04602
0,4013;68,45015;0,02395;68,45015
0,4036;68,85358;0,02513;68,85358
0,4058;69,25596;0,02572;69,25596
0,4081;69,65741;0,02631;69,65741
0,4104;70,05770;0,02690;70,05770
0,4128;70,49011;0,02748;70,49011
0,4152;70,92124;0,02865;70,92124
0,4177;71,35086;0,02923;71,35086
0,4201;71,77897;0,02981;71,77897
0,4226;72,20556;0,03097;72,20556
0,4250;72,63052;0,03155;72,63052
0,4274;73,05397;0,03212;73,05397
0,4299;73,47602;0,03326;73,47602
0,4323;73,89668;0,03383;73,89668
0,4348;74,31559;0,03440;74,31559
0,4372;74,73252;0,03496;74,73252
0,4396;75,14724;0,03608;75,14724
0,4421;75,55952;0,03664;75,55952
0,4445;75,96958;0,03720;75,96958
0,4470;76,37767;0,03830;76,37767
0,4494;76,78424;0,03885;76,78424
0,4518;77,18976;0,03940;77,18976
0,4543;77,59448;0,04049;77,59448
0,4567;77,99837;0,04102;77,99837
0,4592;78,40133;0,04157;78,40133
0,4616;78,80313;0,04210;78,80313
0,4640;79,20389;0,04316;79,20389
0,4667;79,63444;0,04369;79,63444
0,4693;80,06382;0,04474;80,06382
0,4719;80,49216;0,04526;80,49216
0,4746;80,91899;0,04578;80,91899
0,4772;81,34430;0,04680;81,34430
0,4798;81,76810;0,04732;81,76810
0,4824;82,19050;0,04833;82,19050
0,4851;82,61174;0,04883;82,61174
0,4877;83,03205;0,04933;83,03205
0,4903;83,45154;0,05032;83,45154
0,4930;83,87010;0,05081;83,87010
0,4956;84,28785;0,05178;84,28785
0,4982;84,70489;0,05226;84,70489
0,5008;85,12159;0,05273;85,12159
0,5035;85,53806;0,05369;85,53806
0,5061;85,95464;0,05416;85,95464
0,5087;86,37134;0,05509;86,37134
0,5114;86,78781;0,05556;86,78781
0,5140;87,20392;0,05601;87,20392
0,5166;87,61923;0,05693;87,61923
0,5192;88,03371;0,05737;88,03371
0,5219;88,44715;0,05827;88,44715
0,5245;88,85989;0,05871;88,85989
0,5271;89,27205;0,05915;89,27205
0,5298;89,68375;0,06002;89,68375
0,5324;90,09521;0,06045;90,09521
0,5350;90,50632;0,06131;90,50632
0,5376;90,91673;0,06173;90,91673
0,5403;91,32633;0,06215;91,32633
0,5429;91,73500;0,06298;91,73500
0,5455;92,14274;0,06339;92,14274
0,5482;92,54942;0,06421;92,54942
0,5508;92,95460;0,06461;92,95460
0,5534;93,35815;0,06501;93,35815
0,5560;93,75960;0,06580;93,75960
0,5589;94,18770;0,06619;94,18770
0,5617;94,61371;0,06697;94,61371
0,5645;95,03786;0,06736;95,03786
0,5673;95,46026;0,06812;95,46026
0,5701;95,88104;0,06850;95,88104
0,5729;96,30030;0,06924;96,30030
0,5758;96,71804;0,06961;96,71804
0,5786;97,13439;0,07034;97,13439
0,5814;97,54969;0,07069;97,54969
0,5842;97,96430;0,07141;97,96430
0,5870;98,37797;0,07177;98,37797
0,5898;98,79106;0,07246;98,79106
0,5926;99,20334;0,07280;99,20334
0,5955;99,61491;0,07349;99,61491
0,5983;100,02556;0,07382;100,02556
0,6011;100,43481;0,07450;100,43481
0,6039;100,84301;0,07482;100,84301
0,6067;101,25017;0,07548;101,25017
0,6095;101,65651;0,07580;101,65651
0,6124;102,06180;0,07644;102,06180
0,6152;102,46581;0,07676;102,46581
0,6180;102,86889;0,07739;102,86889
0,6208;103,27162;0,07769;103,27162
0,6236;103,67459;0,07830;103,67459
0,6264;104,07755;0,07861;104,07755
0,6293;104,48098;0,07921;104,48098
0,6321;104,88511;0,07950;104,88511
0,6349;105,28958;0,08009;105,28958
0,6377;105,69406;0,08038;105,69406
0,6405;106,09807;0,08096;106,09807
0,6433;106,50069;0,08124;106,50069
0,6463;106,92658;0,08180;106,92658
0,6493;107,34503;0,08208;107,34503
0,6524;107,75265;0,08263;107,75265
0,6555;108,17063;0,08318;108,17063
0,6589;108,59152;0,08372;108,59152
0,6625;109,00391;0,08398;109,00391
0,6664;109,40850;0,08477;109,40850
0,6713;109,81391;0,08530;109,81391
0,6792;110,21408;0,08634;110,21408
0,7381;110,61774;0,09569;110,61774
0,7485;111,02129;0,09762;111,02129
0,7550;111,42227;0,09933;111,42227
0,7605;111,82268;0,10071;111,82268
0,7656;112,22646;0,10169;112,22646
0,7710;112,62872;0,10324;112,62872
0,7804;113,02901;0,10605;113,02901
1,2514;113,43768;0,67121;113,43768
1,2567;113,84646;0,67749;113,84646
1,2610;114,25536;0,68161;114,25536
1,2651;114,66286;0,68569;114,66286
1,2695;115,07095;0,69174;115,07095
1,2747;115,47205;0,69770;115,47205
1,2899;115,87222;0,71336;115,87222
1,4681;115,99421;1,31361;115,99421
1,5319;116,01225;1,92480;116,01225
1,5807;116,03110;2,53379;116,03110
1,6239;116,04146;3,14476;116,04146
1,6652;116,05101;3,76606;116,05101
1,7046;116,05834;4,37148;116,05834
1,7347;116,06532;4,83016;116,06532
1,7352;116,06544;4,83016;116,06544
