Part protocol
Network name;Part_OP10_MP-001_2020-08-26_16-29-09_0044_OK.csv
Protocol version;2.01.00

Index;Result information;Process values - curve related;Process values - EO related;Evaluation objects settings;Switch signal settings;Device information;Channel-X settings;Channel-Y settings;Cycle control settings;Evaluation settings;Trigger Y settings;Block settings;Measuring curve;Measuring points;Sequence;
Line;10;30;40;70;100;120;150;190;220;240;250;260;270;280;600;



Result information
Date;2020/08/26
Time;16:29:09
Cycle number;44
Total result;OK
Triggered switch signals
Part serial number;0044
Measuring program name;D57-Left
Measuring program number;1
Zero X offset;0,00;mm
Tara Y offset;0,0;kN









Process values - curve related
Block X;126,40;mm;XMIN-X;-0,17;mm
Block Y;7,5;kN;XMIN-Y;0,0;kN
Ref X;-;mm;XMAX-X;126,40;mm
Peak-peak X;126,58;mm;XMAX-Y;7,5;kN
Peak-peak Y;7,6;kN;YMIN-X;0,23;mm
;;;YMIN-Y;0,0;kN
;;;YMAX-X;126,40;mm
;;;YMAX-Y;7,5;kN

Process values - EO related;Result;Entry;Exit;XMIN-X;XMIN-Y;XMAX-X;XMAX-Y;YMIN-Y;YMIN-X;YMAX-Y;YMAX-X
;;;;mm;kN;mm;kN;kN;mm;kN;mm
EO-01;OK;0,7;0,8;;;;;0,7;124,50;0,7;125,45;;;;;;
EO-02;OK;126,36;126,37;126,36;4,5;126,37;5,0;;;;;;;;;;
EO-03;None;
EO-04;None;
























Evaluation objects settings;Reaction;X reference;Y-Reference;XMin;XMax;YMin;YMax;Entry;Exit;Curve part;Catch zone X;Catch zone Y
EO-01;UNI-BOX;ABSOLUTE;-;124,50;125,70;0,5;3,0;LEFT;RIGHT;ANY;+50%;+50%
EO-02;UNI-BOX;ABSOLUTE;-;125,80;127,20;4,5;5,5;BELOW;ABOVE;ANY;+50%;+50%
EO-03;OFF
EO-04;OFF

























Switch signal settings;Channel;Threshold at;;Trigger from;Reference;Latch until
Type S1;OFF
Type S2;OFF

















Device information
Device type;maXYmos BL
Device type number;5867B1011
Device serial number;5182443
Firmware version;2.3.2 (r22473-BL_v2.3.x)
-
-
-
-
-
IP Address;10.0.0.18
Network name;OP10
Profibus address;10
-
-
-
Station name;OP10
Company name;
Comment;











Channel-X settings
Use the settings from global setup;True
Sensor-X type;Â±10V
Unit;mm
Used range from;0,00;mm
Used range to;200,00;mm
Decimal places;XXXX.XX
Scaling by;Teach-In
Point 1;0,00;mm;-0,350;%
Point 2;200,00;mm;10,000;%
Invert signal;FALSE
Filter;20 Hz
Test point;0,00;mm
Tolerance;2,00;mm
Enable sensor test by dig-input;FALSE
Zoom from;110,00;mm
Zoom to;133,11;mm























Channel-Y settings
Use the settings from global setup;True
Sensor-Y type;Strain Gage
Unit;kN
Used range from;0,0;kN
Used range to;20,0;kN
Decimal places;XXXXX.X
Scaling by;Teach-In
Point 1;0,0;kN;-0,01562;%
Point 2;20,0;kN;2,00000;%
Invert signal;FALSE
Filter;1 Hz
Piezo reset;-
Test point;0,0;kN
Tolerance;0,1;kN
Enable sensor test by dig-input;FALSE
Zoom from;0,0;kN
Zoom to;6,0;kN












Cycle control settings
Use the settings from global setup;True
Measuring function;Y (X)
Delta-X;Automatic
START condition;Dig-Input
STOP condition;Dig-Input
Cycle time out;20,00;s
Turning point RIGHT;YMAX
Turning point LEFT;NONE
Cut curve at;NONE










Evaluation settings
Capture only first NOK-EO for statistics;False
Hysteresis-X;0,0;%
Hysteresis-Y;100,0;%






Trigger Y settings
Threshold;1,9;kN
Value X at TRIGGER Y;0,00;mm
Approach from;BELOW






Block settings
Value X at block;XMAX
Block at;0,00;mm







Measuring curve
Number of measuring points;317
Ref. Graph on;ABSOLUTE
Curve segments;0;316;315;317;


Time;X(ABSOLUTE);Y;X (ABSOLUTE)


s;mm;kN;mm
0,0000;-0,17143;-0,03435;-0,17143
0,0908;0,23340;-0,03437;0,23340
0,0947;0,64114;-0,03437;0,64114
0,0975;1,04957;-0,03437;1,04957
0,0998;1,44974;-0,03437;1,44974
0,1018;1,87447;-0,03437;1,87447
0,1037;2,30886;-0,03437;2,30886
0,1054;2,73906;-0,03436;2,73906
0,1069;3,15262;-0,03436;3,15262
0,1084;3,59516;-0,03436;3,59516
0,1097;4,00569;-0,03436;4,00569
0,1110;4,43822;-0,03436;4,43822
0,1124;4,89182;-0,03435;4,89182
0,1135;5,29594;-0,03435;5,29594
0,1146;5,71090;-0,03435;5,71090
0,1157;6,13283;-0,03435;6,13283
0,1169;6,55663;-0,03435;6,55663
0,1180;6,97740;-0,03434;6,97740
0,1191;7,39061;-0,03434;7,39061
0,1202;7,79358;-0,03434;7,79358
0,1216;8,24834;-0,03433;8,24834
0,1229;8,68564;-0,03433;8,68564
0,1242;9,10501;-0,03432;9,10501
0,1255;9,50623;-0,03431;9,50623
0,1270;9,94283;-0,03429;9,94283
0,1285;10,35686;-0,03429;10,35686
0,1302;10,79963;-0,03428;10,79963
0,1319;11,22447;-0,03426;11,22447
0,1336;11,63850;-0,03425;11,63850
0,1353;12,04670;-0,03423;12,04670
0,1370;12,45199;-0,03422;12,45199
0,1386;12,85623;-0,03419;12,85623
0,1403;13,26164;-0,03417;13,26164
0,1420;13,67078;-0,03414;13,67078
0,1437;14,08538;-0,03414;14,08538
0,1454;14,50534;-0,03411;14,50534
0,1471;14,92960;-0,03409;14,92960
0,1488;15,35736;-0,03406;15,35736
0,1505;15,78861;-0,03403;15,78861
0,1522;16,22358;-0,03399;16,22358
0,1539;16,66239;-0,03396;16,66239
0,1555;17,10389;-0,03392;17,10389
0,1572;17,54701;-0,03387;17,54701
0,1589;17,99141;-0,03384;17,99141
0,1606;18,43755;-0,03384;18,43755
0,1623;18,88580;-0,03379;18,88580
0,1640;19,33590;-0,03374;19,33590
0,1655;19,73689;-0,03369;19,73689
0,1670;20,13822;-0,03363;20,13822
0,1685;20,54014;-0,03358;20,54014
0,1700;20,94310;-0,03358;20,94310
0,1715;21,34770;-0,03352;21,34770
0,1730;21,75392;-0,03347;21,75392
0,1745;22,16131;-0,03340;22,16131
0,1760;22,56893;-0,03334;22,56893
0,1775;22,97655;-0,03334;22,97655
0,1790;23,38405;-0,03327;23,38405
0,1805;23,79179;-0,03320;23,79179
0,1820;24,20010;-0,03312;24,20010
0,1835;24,60889;-0,03305;24,60889
0,1850;25,01767;-0,03305;25,01767
0,1865;25,42576;-0,03298;25,42576
0,1880;25,83303;-0,03289;25,83303
0,1895;26,23983;-0,03281;26,23983
0,1910;26,64641;-0,03273;26,64641
0,1925;27,05321;-0,03273;27,05321
0,1940;27,45978;-0,03264;27,45978
0,1955;27,86577;-0,03255;27,86577
0,1970;28,27083;-0,03246;28,27083
0,1985;28,67449;-0,03236;28,67449
0,2000;29,07699;-0,03236;29,07699
0,2015;29,47833;-0,03226;29,47833
0,2030;29,87873;-0,03217;29,87873
0,2047;30,32732;-0,03207;30,32732
0,2064;30,77359;-0,03196;30,77359
0,2081;31,21729;-0,03186;31,21729
0,2098;31,65820;-0,03174;31,65820
0,2115;32,09655;-0,03163;32,09655
0,2132;32,53257;-0,03163;32,53257
0,2149;32,96638;-0,03152;32,96638
0,2166;33,39774;-0,03140;33,39774
0,2182;33,82655;-0,03129;33,82655
0,2199;34,25291;-0,03117;34,25291
0,2216;34,67705;-0,03105;34,67705
0,2233;35,09911;-0,03092;35,09911
0,2250;35,51906;-0,03080;35,51906
0,2267;35,93681;-0,03067;35,93681
0,2284;36,35211;-0,03054;36,35211
0,2301;36,76509;-0,03054;36,76509
0,2318;37,17562;-0,03041;37,17562
0,2335;37,58382;-0,03027;37,58382
0,2351;37,98958;-0,03014;37,98958
0,2368;38,39301;-0,03000;38,39301
0,2385;38,79399;-0,02987;38,79399
0,2404;39,23711;-0,02973;39,23711
0,2423;39,67767;-0,02959;39,67767
0,2442;40,11602;-0,02944;40,11602
0,2460;40,55262;-0,02930;40,55262
0,2479;40,98760;-0,02915;40,98760
0,2498;41,42094;-0,02900;41,42094
0,2517;41,85277;-0,02886;41,85277
0,2535;42,28274;-0,02871;42,28274
0,2554;42,71096;-0,02855;42,71096
0,2573;43,13709;-0,02840;43,13709
0,2592;43,56112;-0,02825;43,56112
0,2611;43,98329;-0,02810;43,98329
0,2629;44,40360;-0,02794;44,40360
0,2648;44,82216;-0,02778;44,82216
0,2667;45,23921;-0,02763;45,23921
0,2686;45,65509;-0,02746;45,65509
0,2704;46,06993;-0,02730;46,06993
0,2723;46,48372;-0,02714;46,48372
0,2742;46,89634;-0,02698;46,89634
0,2761;47,30745;-0,02682;47,30745
0,2779;47,71705;-0,02665;47,71705
0,2798;48,12525;-0,02649;48,12525
0,2817;48,53206;-0,02632;48,53206
0,2836;48,93770;-0,02615;48,93770
0,2855;49,34218;-0,02599;49,34218
0,2873;49,74561;-0,02582;49,74561
0,2892;50,14799;-0,02565;50,14799
0,2911;50,54944;-0,02549;50,54944
0,2930;50,94984;-0,02532;50,94984
0,2950;51,38935;-0,02514;51,38935
0,2971;51,82782;-0,02498;51,82782
0,2992;52,26512;-0,02480;52,26512
0,3012;52,70137;-0,02464;52,70137
0,3033;53,13658;-0,02446;53,13658
0,3054;53,57062;-0,02412;53,57062
0,3074;54,00373;-0,02394;54,00373
0,3095;54,43591;-0,02376;54,43591
0,3116;54,86728;-0,02360;54,86728
0,3136;55,29794;-0,02342;55,29794
0,3157;55,72791;-0,02325;55,72791
0,3178;56,15672;-0,02307;56,15672
0,3198;56,58436;-0,02289;56,58436
0,3219;57,01072;-0,02272;57,01072
0,3239;57,43591;-0,02254;57,43591
0,3260;57,86006;-0,02219;57,86006
0,3281;58,28339;-0,02202;58,28339
0,3301;58,70591;-0,02184;58,70591
0,3322;59,12762;-0,02166;59,12762
0,3343;59,54827;-0,02149;59,54827
0,3363;59,96765;-0,02131;59,96765
0,3384;60,38574;-0,02114;60,38574
0,3405;60,80221;-0,02096;60,80221
0,3425;61,21716;-0,02078;61,21716
0,3446;61,63060;-0,02061;61,63060
0,3467;62,04276;-0,02026;62,04276
0,3487;62,45364;-0,02008;62,45364
0,3508;62,86336;-0,01990;62,86336
0,3529;63,27214;-0,01973;63,27214
0,3549;63,67988;-0,01955;63,67988
0,3570;64,08656;-0,01938;64,08656
0,3591;64,49209;-0,01920;64,49209
0,3611;64,89633;-0,01903;64,89633
0,3632;65,29907;-0,01885;65,29907
0,3652;65,70040;-0,01867;65,70040
0,3675;66,13654;-0,01832;66,13654
0,3698;66,57116;-0,01815;66,57116
0,3720;67,00450;-0,01797;67,00450
0,3743;67,43680;-0,01779;67,43680
0,3765;67,86840;-0,01762;67,86840
0,3788;68,29895;-0,01728;68,29895
0,3810;68,72857;-0,01710;68,72857
0,3833;69,15667;-0,01692;69,15667
0,3855;69,58326;-0,01675;69,58326
0,3878;70,00834;-0,01658;70,00834
0,3900;70,43226;-0,01623;70,43226
0,3923;70,85524;-0,01606;70,85524
0,3945;71,27753;-0,01589;71,27753
0,3968;71,69900;-0,01572;71,69900
0,3990;72,11966;-0,01554;72,11966
0,4013;72,53927;-0,01520;72,53927
0,4035;72,95771;-0,01504;72,95771
0,4058;73,37464;-0,01486;73,37464
0,4081;73,79029;-0,01469;73,79029
0,4103;74,20513;-0,01453;74,20513
0,4126;74,61927;-0,01418;74,61927
0,4148;75,03259;-0,01402;75,03259
0,4171;75,44522;-0,01385;75,44522
0,4193;75,85703;-0,01367;75,85703
0,4216;76,26767;-0,01351;76,26767
0,4238;76,67704;-0,01318;76,67704
0,4261;77,08512;-0,01301;77,08512
0,4283;77,49205;-0,01284;77,49205
0,4306;77,89757;-0,01268;77,89757
0,4328;78,30193;-0,01251;78,30193
0,4351;78,70513;-0,01218;78,70513
0,4373;79,10739;-0,01202;79,10739
0,4396;79,50885;-0,01185;79,50885
0,4418;79,90925;-0,01168;79,90925
0,4443;80,34178;-0,01136;80,34178
0,4467;80,77268;-0,01119;80,77268
0,4492;81,20160;-0,01104;81,20160
0,4516;81,62854;-0,01087;81,62854
0,4541;82,05350;-0,01055;82,05350
0,4565;82,47684;-0,01038;82,47684
0,4589;82,89854;-0,01022;82,89854
0,4614;83,31861;-0,00990;83,31861
0,4638;83,73694;-0,00974;83,73694
0,4663;84,15341;-0,00958;84,15341
0,4687;84,56790;-0,00926;84,56790
0,4711;84,98087;-0,00910;84,98087
0,4736;85,39280;-0,00894;85,39280
0,4760;85,80402;-0,00879;85,80402
0,4785;86,21467;-0,00846;86,21467
0,4809;86,62485;-0,00831;86,62485
0,4833;87,03410;-0,00815;87,03410
0,4858;87,44254;-0,00784;87,44254
0,4882;87,84957;-0,00769;87,84957
0,4907;88,25510;-0,00753;88,25510
0,4931;88,65923;-0,00721;88,65923
0,4955;89,06231;-0,00706;89,06231
0,4980;89,46422;-0,00691;89,46422
0,5004;89,86498;-0,00675;89,86498
0,5031;90,29518;-0,00645;90,29518
0,5057;90,72375;-0,00629;90,72375
0,5083;91,15057;-0,00598;91,15057
0,5109;91,57565;-0,00583;91,57565
0,5136;91,99910;-0,00568;91,99910
0,5162;92,42150;-0,00537;92,42150
0,5188;92,84344;-0,00521;92,84344
0,5214;93,26515;-0,00492;93,26515
0,5241;93,68627;-0,00476;93,68627
0,5267;94,10646;-0,00461;94,10646
0,5293;94,52525;-0,00431;94,52525
0,5320;94,94253;-0,00416;94,94253
0,5346;95,35795;-0,00386;95,35795
0,5372;95,77197;-0,00371;95,77197
0,5398;96,18460;-0,00356;96,18460
0,5425;96,59641;-0,00326;96,59641
0,5451;97,00764;-0,00311;97,00764
0,5477;97,41852;-0,00282;97,41852
0,5504;97,82905;-0,00267;97,82905
0,5530;98,23911;-0,00252;98,23911
0,5556;98,64882;-0,00222;98,64882
0,5582;99,05807;-0,00208;99,05807
0,5609;99,46697;-0,00178;99,46697
0,5635;99,87541;-0,00163;99,87541
0,5661;100,28349;-0,00148;100,28349
0,5688;100,69088;-0,00119;100,69088
0,5714;101,09734;-0,00105;101,09734
0,5740;101,50263;-0,00075;101,50263
0,5766;101,90676;-0,00060;101,90676
0,5793;102,30961;-0,00046;102,30961
0,5819;102,71152;-0,00017;102,71152
0,5845;103,11262;-0,00002;103,11262
0,5873;103,54038;0,00027;103,54038
0,5902;103,96278;0,00041;103,96278
0,5930;104,37529;0,00071;104,37529
0,5960;104,80072;0,00085;104,80072
0,5990;105,21020;0,00115;105,21020
0,6022;105,62969;0,00143;105,62969
0,6054;106,03650;0,00158;106,03650
0,6087;106,45809;0,00187;106,45809
0,6121;106,87455;0,00216;106,87455
0,6155;107,28927;0,00246;107,28927
0,6189;107,70434;0,00275;107,70434
0,6223;108,11976;0,00289;108,11976
0,6256;108,53146;0,00319;108,53146
0,6290;108,93163;0,00350;108,93163
0,6328;109,35077;0,00379;109,35077
0,6369;109,76793;0,00410;109,76793
0,6416;110,17427;0,00457;110,17427
0,6476;110,58189;0,00505;110,58189
0,6566;110,98474;0,00588;110,98474
0,6917;111,38514;0,00961;111,38514
0,7109;111,79113;0,01278;111,79113
0,7175;112,19875;0,01382;112,19875
0,7221;112,60195;0,01494;112,60195
0,7261;113,01236;0,01573;113,01236
0,7295;113,41335;0,01614;113,41335
0,7327;113,83098;0,01700;113,83098
0,7357;114,25722;0,01789;114,25722
0,7385;114,68545;0,01836;114,68545
0,7411;115,11111;0,01933;115,11111
0,7435;115,53153;0,01982;115,53153
0,7458;115,94474;0,02033;115,94474
0,7479;116,34817;0,02085;116,34817
0,7499;116,77511;0,02138;116,77511
0,7518;117,17703;0,02193;117,17703
0,7537;117,58034;0,02248;117,58034
0,7557;118,00728;0,02305;118,00728
0,7580;118,43120;0,02421;118,43120
0,7606;118,84766;0,02482;118,84766
0,7642;119,25866;0,02606;119,25866
0,7738;119,65883;0,02940;119,65883
1,2497;119,73274;0,62966;119,73274
1,2773;120,13349;0,66232;120,13349
1,2822;120,54402;0,66908;120,54402
1,2865;120,96072;0,67354;120,96072
1,2906;121,37882;0,67799;121,37882
1,2949;121,78446;0,68462;121,78446
1,3008;122,18975;0,69124;122,18975
1,3101;122,59073;0,70227;122,59073
1,3201;122,99696;0,71344;122,99696
1,3263;123,40097;0,72025;123,40097
1,3314;123,81197;0,72717;123,81197
1,3361;124,22762;0,73422;124,22762
1,3404;124,63978;0,73900;124,63978
1,3445;125,04635;0,74384;125,04635
1,3488;125,44908;0,74876;125,44908
1,3545;125,85402;0,75629;125,85402
1,5420;126,25408;1,29308;126,25408
1,6289;126,29365;1,89866;126,29365
1,6946;126,31309;2,51047;126,31309
1,7510;126,32927;3,12093;126,32927
1,8035;126,34277;3,73681;126,34277
1,8542;126,35464;4,35020;126,35464
1,9049;126,36512;4,96366;126,36512
1,9575;126,37583;5,58397;126,37583
2,0119;126,38595;6,19704;126,38595
2,0701;126,39457;6,81066;126,39457
2,1321;126,40260;7,41229;126,40260
2,1433;126,40446;7,51592;126,40446
2,1443;126,40481;7,51592;126,40481
