Part protocol
Network name;Part_OP10_MP-001_2020-08-26_10-23-38_0013_OK.csv
Protocol version;2.01.00

Index;Result information;Process values - curve related;Process values - EO related;Evaluation objects settings;Switch signal settings;Device information;Channel-X settings;Channel-Y settings;Cycle control settings;Evaluation settings;Trigger Y settings;Block settings;Measuring curve;Measuring points;Sequence;
Line;10;30;40;70;100;120;150;190;220;240;250;260;270;280;600;



Result information
Date;2020/08/26
Time;10:23:38
Cycle number;13
Total result;OK
Triggered switch signals
Part serial number;0013
Measuring program name;D57-Left
Measuring program number;1
Zero X offset;0,00;mm
Tara Y offset;0,0;kN









Process values - curve related
Block X;126,33;mm;XMIN-X;-0,15;mm
Block Y;7,4;kN;XMIN-Y;0,0;kN
Ref X;-;mm;XMAX-X;126,33;mm
Peak-peak X;126,48;mm;XMAX-Y;7,4;kN
Peak-peak Y;7,5;kN;YMIN-X;0,26;mm
;;;YMIN-Y;0,0;kN
;;;YMAX-X;126,33;mm
;;;YMAX-Y;7,4;kN

Process values - EO related;Result;Entry;Exit;XMIN-X;XMIN-Y;XMAX-X;XMAX-Y;YMIN-Y;YMIN-X;YMAX-Y;YMAX-X
;;;;mm;kN;mm;kN;kN;mm;kN;mm
EO-01;OK;0,8;0,8;;;;;0,8;124,50;0,8;125,55;;;;;;
EO-02;OK;126,29;126,31;126,29;4,5;126,30;5,1;;;;;;;;;;
EO-03;None;
EO-04;None;
























Evaluation objects settings;Reaction;X reference;Y-Reference;XMin;XMax;YMin;YMax;Entry;Exit;Curve part;Catch zone X;Catch zone Y
EO-01;UNI-BOX;ABSOLUTE;-;124,50;125,70;0,5;3,0;LEFT;RIGHT;ANY;+50%;+50%
EO-02;UNI-BOX;ABSOLUTE;-;125,80;127,20;4,5;5,5;BELOW;ABOVE;ANY;+50%;+50%
EO-03;OFF
EO-04;OFF

























Switch signal settings;Channel;Threshold at;;Trigger from;Reference;Latch until
Type S1;OFF
Type S2;OFF

















Device information
Device type;maXYmos BL
Device type number;5867B1011
Device serial number;5182443
Firmware version;2.3.2 (r22473-BL_v2.3.x)
-
-
-
-
-
IP Address;10.0.0.18
Network name;OP10
Profibus address;10
-
-
-
Station name;OP10
Company name;
Comment;











Channel-X settings
Use the settings from global setup;True
Sensor-X type;Â±10V
Unit;mm
Used range from;0,00;mm
Used range to;200,00;mm
Decimal places;XXXX.XX
Scaling by;Teach-In
Point 1;0,00;mm;-0,350;%
Point 2;200,00;mm;10,000;%
Invert signal;FALSE
Filter;20 Hz
Test point;0,00;mm
Tolerance;2,00;mm
Enable sensor test by dig-input;FALSE
Zoom from;110,00;mm
Zoom to;133,11;mm























Channel-Y settings
Use the settings from global setup;True
Sensor-Y type;Strain Gage
Unit;kN
Used range from;0,0;kN
Used range to;20,0;kN
Decimal places;XXXXX.X
Scaling by;Teach-In
Point 1;0,0;kN;-0,01562;%
Point 2;20,0;kN;2,00000;%
Invert signal;FALSE
Filter;1 Hz
Piezo reset;-
Test point;0,0;kN
Tolerance;0,1;kN
Enable sensor test by dig-input;FALSE
Zoom from;0,0;kN
Zoom to;6,0;kN












Cycle control settings
Use the settings from global setup;True
Measuring function;Y (X)
Delta-X;Automatic
START condition;Dig-Input
STOP condition;Dig-Input
Cycle time out;20,00;s
Turning point RIGHT;YMAX
Turning point LEFT;NONE
Cut curve at;NONE










Evaluation settings
Capture only first NOK-EO for statistics;False
Hysteresis-X;0,0;%
Hysteresis-Y;100,0;%






Trigger Y settings
Threshold;1,9;kN
Value X at TRIGGER Y;0,00;mm
Approach from;BELOW






Block settings
Value X at block;XMAX
Block at;0,00;mm







Measuring curve
Number of measuring points;315
Ref. Graph on;ABSOLUTE
Curve segments;0;315;314;315;


Time;X(ABSOLUTE);Y;X (ABSOLUTE)


s;mm;kN;mm
0,0000;-0,14791;-0,03579;-0,14791
0,0989;0,25971;-0,03584;0,25971
0,1029;0,67210;-0,03584;0,67210
0,1057;1,08554;-0,03584;1,08554
0,1080;1,49106;-0,03584;1,49106
0,1100;1,92161;-0,03584;1,92161
0,1119;2,36182;-0,03583;2,36182
0,1136;2,79773;-0,03583;2,79773
0,1151;3,21641;-0,03583;3,21641
0,1166;3,66407;-0,03583;3,66407
0,1179;4,07937;-0,03582;4,07937
0,1192;4,51679;-0,03582;4,51679
0,1205;4,97515;-0,03582;4,97515
0,1217;5,38254;-0,03581;5,38254
0,1228;5,80006;-0,03581;5,80006
0,1239;6,22316;-0,03581;6,22316
0,1250;6,64672;-0,03581;6,64672
0,1262;7,06598;-0,03580;7,06598
0,1273;7,47674;-0,03579;7,47674
0,1286;7,94175;-0,03579;7,94175
0,1299;8,38906;-0,03578;8,38906
0,1312;8,81798;-0,03577;8,81798
0,1325;9,22921;-0,03577;9,22921
0,1340;9,67850;-0,03576;9,67850
0,1355;10,10719;-0,03575;10,10719
0,1371;10,51725;-0,03574;10,51725
0,1387;10,95979;-0,03572;10,95979
0,1404;11,38743;-0,03571;11,38743
0,1421;11,80576;-0,03569;11,80576
0,1438;12,21931;-0,03569;12,21931
0,1455;12,63112;-0,03567;12,63112
0,1472;13,04270;-0,03565;13,04270
0,1489;13,45521;-0,03563;13,45521
0,1506;13,86993;-0,03560;13,86993
0,1523;14,28791;-0,03558;14,28791
0,1539;14,70961;-0,03555;14,70961
0,1556;15,13492;-0,03552;15,13492
0,1573;15,56303;-0,03548;15,56303
0,1590;15,99370;-0,03546;15,99370
0,1607;16,42657;-0,03546;16,42657
0,1624;16,86178;-0,03542;16,86178
0,1641;17,29897;-0,03538;17,29897
0,1658;17,73778;-0,03534;17,73778
0,1675;18,17811;-0,03530;18,17811
0,1692;18,61983;-0,03525;18,61983
0,1708;19,06318;-0,03521;19,06318
0,1725;19,50805;-0,03516;19,50805
0,1742;19,95397;-0,03510;19,95397
0,1759;20,40069;-0,03505;20,40069
0,1776;20,84812;-0,03505;20,84812
0,1793;21,29671;-0,03499;21,29671
0,1810;21,74670;-0,03494;21,74670
0,1825;22,14769;-0,03487;22,14769
0,1840;22,54949;-0,03482;22,54949
0,1855;22,95152;-0,03474;22,95152
0,1870;23,35367;-0,03474;23,35367
0,1885;23,75628;-0,03468;23,75628
0,1900;24,15936;-0,03461;24,15936
0,1915;24,56303;-0,03454;24,56303
0,1930;24,96704;-0,03447;24,96704
0,1945;25,37093;-0,03447;25,37093
0,1960;25,77471;-0,03438;25,77471
0,1975;26,17814;-0,03431;26,17814
0,1990;26,58157;-0,03423;26,58157
0,2005;26,98512;-0,03413;26,98512
0,2020;27,38890;-0,03413;27,38890
0,2035;27,79256;-0,03405;27,79256
0,2050;28,19564;-0,03396;28,19564
0,2065;28,59779;-0,03386;28,59779
0,2080;28,99889;-0,03377;28,99889
0,2097;29,44876;-0,03368;29,44876
0,2114;29,89724;-0,03368;29,89724
0,2131;30,34408;-0,03358;30,34408
0,2148;30,78872;-0,03348;30,78872
0,2165;31,23079;-0,03337;31,23079
0,2182;31,67030;-0,03327;31,67030
0,2198;32,10714;-0,03316;32,10714
0,2215;32,54165;-0,03305;32,54165
0,2232;32,97394;-0,03294;32,97394
0,2249;33,40391;-0,03283;33,40391
0,2266;33,83143;-0,03271;33,83143
0,2283;34,25675;-0,03271;34,25675
0,2300;34,67950;-0,03260;34,67950
0,2317;35,09992;-0,03248;35,09992
0,2334;35,51778;-0,03235;35,51778
0,2351;35,93320;-0,03223;35,93320
0,2367;36,34606;-0,03211;36,34606
0,2384;36,75636;-0,03198;36,75636
0,2401;37,16433;-0,03185;37,16433
0,2418;37,56985;-0,03172;37,56985
0,2435;37,97293;-0,03159;37,97293
0,2452;38,37392;-0,03159;38,37392
0,2471;38,81692;-0,03145;38,81692
0,2489;39,25748;-0,03131;39,25748
0,2508;39,69560;-0,03118;39,69560
0,2527;40,13162;-0,03104;40,13162
0,2546;40,56531;-0,03090;40,56531
0,2565;40,99702;-0,03075;40,99702
0,2583;41,42688;-0,03062;41,42688
0,2602;41,85487;-0,03047;41,85487
0,2621;42,28076;-0,03033;42,28076
0,2640;42,70456;-0,03018;42,70456
0,2658;43,12650;-0,03003;43,12650
0,2677;43,54657;-0,02988;43,54657
0,2696;43,96490;-0,02974;43,96490
0,2715;44,38136;-0,02958;44,38136
0,2734;44,79620;-0,02943;44,79620
0,2752;45,20964;-0,02928;45,20964
0,2771;45,62192;-0,02912;45,62192
0,2790;46,03326;-0,02897;46,03326
0,2809;46,44402;-0,02881;46,44402
0,2827;46,85386;-0,02865;46,85386
0,2846;47,26276;-0,02850;47,26276
0,2865;47,67014;-0,02834;47,67014
0,2884;48,07613;-0,02818;48,07613
0,2902;48,48061;-0,02802;48,48061
0,2921;48,88334;-0,02786;48,88334
0,2940;49,28468;-0,02770;49,28468
0,2959;49,68473;-0,02754;49,68473
0,2979;50,12354;-0,02721;50,12354
0,3000;50,56131;-0,02705;50,56131
0,3021;50,99815;-0,02688;50,99815
0,3041;51,43417;-0,02672;51,43417
0,3062;51,86937;-0,02655;51,86937
0,3083;52,30365;-0,02638;52,30365
0,3103;52,73664;-0,02622;52,73664
0,3124;53,16836;-0,02605;53,16836
0,3145;53,59879;-0,02588;53,59879
0,3165;54,02818;-0,02572;54,02818
0,3186;54,45651;-0,02538;54,45651
0,3207;54,88381;-0,02521;54,88381
0,3227;55,31028;-0,02504;55,31028
0,3248;55,73548;-0,02488;55,73548
0,3269;56,15928;-0,02471;56,15928
0,3289;56,58133;-0,02453;56,58133
0,3310;57,00187;-0,02437;57,00187
0,3331;57,42125;-0,02419;57,42125
0,3351;57,83946;-0,02402;57,83946
0,3372;58,25697;-0,02386;58,25697
0,3392;58,67379;-0,02351;58,67379
0,3413;59,08967;-0,02334;59,08967
0,3434;59,50451;-0,02317;59,50451
0,3454;59,91806;-0,02300;59,91806
0,3475;60,32999;-0,02283;60,32999
0,3496;60,74005;-0,02265;60,74005
0,3516;61,14872;-0,02249;61,14872
0,3537;61,55622;-0,02231;61,55622
0,3558;61,96268;-0,02214;61,96268
0,3578;62,36832;-0,02197;62,36832
0,3599;62,77315;-0,02163;62,77315
0,3620;63,17704;-0,02145;63,17704
0,3640;63,57966;-0,02128;63,57966
0,3661;63,98099;-0,02111;63,98099
0,3683;64,41701;-0,02094;64,41701
0,3706;64,85140;-0,02077;64,85140
0,3729;65,28405;-0,02060;65,28405
0,3751;65,71530;-0,02026;65,71530
0,3774;66,14515;-0,02008;66,14515
0,3796;66,57395;-0,01991;66,57395
0,3819;67,00171;-0,01974;67,00171
0,3841;67,42854;-0,01957;67,42854
0,3864;67,85443;-0,01923;67,85443
0,3886;68,27916;-0,01905;68,27916
0,3909;68,70261;-0,01889;68,70261
0,3931;69,12455;-0,01872;69,12455
0,3954;69,54567;-0,01854;69,54567
0,3976;69,96633;-0,01821;69,96633
0,3999;70,38675;-0,01803;70,38675
0,4021;70,80729;-0,01787;70,80729
0,4044;71,22725;-0,01770;71,22725
0,4066;71,64604;-0,01754;71,64604
0,4089;72,06286;-0,01719;72,06286
0,4112;72,47758;-0,01703;72,47758
0,4134;72,89043;-0,01686;72,89043
0,4157;73,30166;-0,01669;73,30166
0,4179;73,71196;-0,01653;73,71196
0,4202;74,12179;-0,01619;74,12179
0,4224;74,53127;-0,01602;74,53127
0,4247;74,94041;-0,01585;74,94041
0,4269;75,34884;-0,01568;75,34884
0,4292;75,75634;-0,01553;75,75634
0,4314;76,16268;-0,01519;76,16268
0,4337;76,56751;-0,01503;76,56751
0,4359;76,97094;-0,01486;76,97094
0,4382;77,37332;-0,01469;77,37332
0,4404;77,77477;-0,01453;77,77477
0,4427;78,17553;-0,01420;78,17553
0,4451;78,60875;-0,01404;78,60875
0,4476;79,04093;-0,01387;79,04093
0,4500;79,47171;-0,01355;79,47171
0,4525;79,90098;-0,01338;79,90098
0,4549;80,32897;-0,01321;80,32897
0,4573;80,75568;-0,01305;80,75568
0,4598;81,18100;-0,01273;81,18100
0,4622;81,60479;-0,01256;81,60479
0,4647;82,02696;-0,01241;82,02696
0,4671;82,44774;-0,01208;82,44774
0,4695;82,86711;-0,01192;82,86711
0,4720;83,28509;-0,01176;83,28509
0,4744;83,70156;-0,01143;83,70156
0,4769;84,11628;-0,01128;84,11628
0,4793;84,52925;-0,01112;84,52925
0,4817;84,94060;-0,01095;84,94060
0,4842;85,35066;-0,01064;85,35066
0,4866;85,75979;-0,01048;85,75979
0,4891;86,16811;-0,01031;86,16811
0,4915;86,57550;-0,01000;86,57550
0,4939;86,98196;-0,00984;86,98196
0,4964;87,38713;-0,00969;87,38713
0,4988;87,79068;-0,00937;87,79068
0,5013;88,19259;-0,00921;88,19259
0,5037;88,59300;-0,00906;88,59300
0,5063;89,02250;-0,00874;89,02250
0,5090;89,45072;-0,00858;89,45072
0,5116;89,87790;-0,00843;89,87790
0,5142;90,30402;-0,00811;90,30402
0,5168;90,72875;-0,00795;90,72875
0,5195;91,15174;-0,00765;91,15174
0,5221;91,57321;-0,00749;91,57321
0,5247;91,99340;-0,00733;91,99340
0,5274;92,41254;-0,00702;92,41254
0,5300;92,83099;-0,00687;92,83099
0,5326;93,24873;-0,00656;93,24873
0,5352;93,66567;-0,00641;93,66567
0,5379;94,08155;-0,00625;94,08155
0,5405;94,49615;-0,00595;94,49615
0,5431;94,90913;-0,00579;94,90913
0,5458;95,32070;-0,00548;95,32070
0,5484;95,73089;-0,00533;95,73089
0,5510;96,13979;-0,00518;96,13979
0,5536;96,54729;-0,00487;96,54729
0,5563;96,95386;-0,00472;96,95386
0,5589;97,35927;-0,00442;97,35927
0,5615;97,76386;-0,00426;97,76386
0,5642;98,16764;-0,00411;98,16764
0,5668;98,57049;-0,00381;98,57049
0,5694;98,97264;-0,00366;98,97264
0,5720;99,37386;-0,00335;99,37386
0,5747;99,77426;-0,00321;99,77426
0,5775;100,20272;-0,00305;100,20272
0,5803;100,63082;-0,00275;100,63082
0,5831;101,05858;-0,00260;101,05858
0,5859;101,48610;-0,00230;101,48610
0,5888;101,91339;-0,00215;101,91339
0,5916;102,34057;-0,00185;102,34057
0,5944;102,76774;-0,00170;102,76774
0,5972;103,19387;-0,00140;103,19387
0,6000;103,61650;-0,00125;103,61650
0,6028;104,03332;-0,00095;104,03332
0,6057;104,44303;-0,00080;104,44303
0,6085;104,84623;-0,00050;104,84623
0,6115;105,27084;-0,00021;105,27084
0,6145;105,69220;-0,00006;105,69220
0,6175;106,11088;0,00025;106,11088
0,6205;106,52688;0,00040;106,52688
0,6235;106,93939;0,00069;106,93939
0,6265;107,34759;0,00100;107,34759
0,6295;107,75044;0,00115;107,75044
0,6327;108,17179;0,00145;108,17179
0,6359;108,58546;0,00175;108,58546
0,6391;108,99157;0,00190;108,99157
0,6424;109,41409;0,00221;109,41409
0,6458;109,82951;0,00252;109,82951
0,6492;110,23980;0,00282;110,23980
0,6526;110,64742;0,00298;110,64742
0,6560;111,05411;0,00328;111,05411
0,6593;111,46162;0,00360;111,46162
0,6627;111,87145;0,00391;111,87145
0,6661;112,28524;0,00424;112,28524
0,6695;112,70357;0,00440;112,70357
0,6727;113,10374;0,00473;113,10374
0,6759;113,51031;0,00506;113,51031
0,6791;113,92445;0,00539;113,92445
0,6822;114,34638;0,00556;114,34638
0,6853;114,75005;0,00590;114,75005
0,6883;115,15778;0,00608;115,15778
0,6913;115,56645;0,00643;115,56645
0,6943;115,97453;0,00678;115,97453
0,6973;116,38215;0,00697;116,38215
0,7003;116,79059;0,00733;116,79059
0,7033;117,20147;0,00751;117,20147
0,7063;117,61188;0,00788;117,61188
0,7095;118,02008;0,00827;118,02008
0,7134;118,42526;0,00866;118,42526
0,7205;118,83067;0,00948;118,83067
1,2554;119,06800;0,61066;119,06800
1,2864;119,46875;0,64838;119,46875
1,2913;119,88417;0,65513;119,88417
1,2956;120,29808;0,65958;120,29808
1,2997;120,70244;0,66399;120,70244
1,3042;121,10785;0,67057;121,10785
1,3104;121,51034;0,67707;121,51034
1,3215;121,91214;0,69002;121,91214
1,3320;122,31511;0,70087;122,31511
1,3384;122,71796;0,70969;122,71796
1,3457;123,12139;0,71872;123,12139
1,3555;123,52260;0,73045;123,52260
1,3701;123,92766;0,75064;123,92766
1,3816;124,33412;0,76733;124,33412
1,3902;124,74325;0,77934;124,74325
1,3983;125,14575;0,79550;125,14575
1,4064;125,55453;0,80939;125,55453
1,4148;125,95843;0,82421;125,95843
1,5727;126,19797;1,42707;126,19797
1,6628;126,23417;2,04089;126,23417
1,7342;126,25443;2,65541;126,25443
1,7961;126,26932;3,26902;126,26932
1,8524;126,28259;3,87373;126,28259
1,9069;126,29237;4,48139;126,29237
1,9613;126,30308;5,09334;126,30308
2,0158;126,31099;5,69368;126,31099
2,0740;126,32205;6,30895;126,32205
2,1359;126,32880;6,92344;126,32880
2,1900;126,33439;7,40808;126,33439
2,1904;126,33439;7,42474;126,33439
