Part protocol
Network name;Part_OP10_MP-002_2020-08-26_14-59-47_0018_OK.csv
Protocol version;2.01.00

Index;Result information;Process values - curve related;Process values - EO related;Evaluation objects settings;Switch signal settings;Device information;Channel-X settings;Channel-Y settings;Cycle control settings;Evaluation settings;Trigger Y settings;Block settings;Measuring curve;Measuring points;Sequence;
Line;10;30;40;70;100;120;150;190;220;240;250;260;270;280;570;



Result information
Date;2020/08/26
Time;14:59:47
Cycle number;18
Total result;OK
Triggered switch signals
Part serial number;0018
Measuring program name;D57-Right
Measuring program number;2
Zero X offset;0,00;mm
Tara Y offset;0,0;kN









Process values - curve related
Block X;116,09;mm;XMIN-X;-0,04;mm
Block Y;4,8;kN;XMIN-Y;0,0;kN
Ref X;-;mm;XMAX-X;116,09;mm
Peak-peak X;116,14;mm;XMAX-Y;4,8;kN
Peak-peak Y;4,9;kN;YMIN-X;-0,04;mm
;;;YMIN-Y;0,0;kN
;;;YMAX-X;116,09;mm
;;;YMAX-Y;4,8;kN

Process values - EO related;Result;Entry;Exit;XMIN-X;XMIN-Y;XMAX-X;XMAX-Y;YMIN-Y;YMIN-X;YMAX-Y;YMAX-X
;;;;mm;kN;mm;kN;kN;mm;kN;mm
EO-01;OK;0,7;0,7;;;;;0,7;115,00;0,7;115,34;;;;;;
EO-02;OK;;116,07;116,05;2,3;116,07;3,2;2,3;116,05;;;;;;;;
EO-03;None;
EO-04;None;
























Evaluation objects settings;Reaction;X reference;Y-Reference;XMin;XMax;YMin;YMax;Entry;Exit;Curve part;Catch zone X;Catch zone Y
EO-01;UNI-BOX;ABSOLUTE;-;115,00;115,50;0,4;2,0;LEFT;RIGHT;ANY;+50%;+50%
EO-02;UNI-BOX;ABSOLUTE;-;115,40;117,10;2,3;3,3;ANY;ABOVE;ANY;+50%;+50%
EO-03;OFF
EO-04;OFF

























Switch signal settings;Channel;Threshold at;;Trigger from;Reference;Latch until
Type S1;OFF
Type S2;OFF

















Device information
Device type;maXYmos BL
Device type number;5867B1011
Device serial number;5182443
Firmware version;2.3.2 (r22473-BL_v2.3.x)
-
-
-
-
-
IP Address;10.0.0.18
Network name;OP10
Profibus address;10
-
-
-
Station name;OP10
Company name;
Comment;











Channel-X settings
Use the settings from global setup;True
Sensor-X type;Â±10V
Unit;mm
Used range from;0,00;mm
Used range to;200,00;mm
Decimal places;XXXX.XX
Scaling by;Teach-In
Point 1;0,00;mm;-0,350;%
Point 2;200,00;mm;10,000;%
Invert signal;FALSE
Filter;20 Hz
Test point;0,00;mm
Tolerance;2,00;mm
Enable sensor test by dig-input;FALSE
Zoom from;100,00;mm
Zoom to;120,00;mm























Channel-Y settings
Use the settings from global setup;True
Sensor-Y type;Strain Gage
Unit;kN
Used range from;0,0;kN
Used range to;20,0;kN
Decimal places;XXXXX.X
Scaling by;Teach-In
Point 1;0,0;kN;-0,01562;%
Point 2;20,0;kN;2,00000;%
Invert signal;FALSE
Filter;1 Hz
Piezo reset;-
Test point;0,0;kN
Tolerance;0,1;kN
Enable sensor test by dig-input;FALSE
Zoom from;0,0;kN
Zoom to;5,0;kN












Cycle control settings
Use the settings from global setup;True
Measuring function;Y (X)
Delta-X;Automatic
START condition;Dig-Input
STOP condition;Dig-Input
Cycle time out;20,00;s
Turning point RIGHT;YMAX
Turning point LEFT;NONE
Cut curve at;NONE










Evaluation settings
Capture only first NOK-EO for statistics;False
Hysteresis-X;0,0;%
Hysteresis-Y;100,0;%






Trigger Y settings
Threshold;1,8;kN
Value X at TRIGGER Y;0,00;mm
Approach from;BELOW






Block settings
Value X at block;XMAX
Block at;0,00;mm







Measuring curve
Number of measuring points;288
Ref. Graph on;ABSOLUTE
Curve segments;0;287;286;288;


Time;X(ABSOLUTE);Y;X (ABSOLUTE)


s;mm;kN;mm
0,0000;-0,04432;-0,03541;-0,04432
0,1163;0,36609;-0,03535;0,36609
0,1195;0,77546;-0,03535;0,77546
0,1217;1,18832;-0,03535;1,18832
0,1236;1,61619;-0,03535;1,61619
0,1253;2,06525;-0,03534;2,06525
0,1268;2,51000;-0,03533;2,51000
0,1281;2,92739;-0,03533;2,92739
0,1294;3,36283;-0,03533;3,36283
0,1308;3,80817;-0,03532;3,80817
0,1321;4,25687;-0,03530;4,25687
0,1334;4,70407;-0,03530;4,70407
0,1347;5,14591;-0,03529;5,14591
0,1360;5,57960;-0,03527;5,57960
0,1373;6,00293;-0,03527;6,00293
0,1386;6,41474;-0,03525;6,41474
0,1400;6,81550;-0,03523;6,81550
0,1415;7,26141;-0,03521;7,26141
0,1430;7,69673;-0,03521;7,69673
0,1445;8,12379;-0,03518;8,12379
0,1460;8,54503;-0,03515;8,54503
0,1475;8,96254;-0,03512;8,96254
0,1490;9,37831;-0,03509;9,37831
0,1505;9,79420;-0,03509;9,79420
0,1520;10,21171;-0,03504;10,21171
0,1535;10,63155;-0,03500;10,63155
0,1550;11,05430;-0,03496;11,05430
0,1565;11,47996;-0,03490;11,47996
0,1580;11,90842;-0,03490;11,90842
0,1595;12,33885;-0,03485;12,33885
0,1610;12,77057;-0,03478;12,77057
0,1625;13,20286;-0,03472;13,20286
0,1640;13,63458;-0,03465;13,63458
0,1655;14,06501;-0,03465;14,06501
0,1670;14,49323;-0,03458;14,49323
0,1685;14,91843;-0,03449;14,91843
0,1700;15,33990;-0,03441;15,33990
0,1715;15,75706;-0,03432;15,75706
0,1730;16,16969;-0,03432;16,16969
0,1745;16,57742;-0,03423;16,57742
0,1760;16,97992;-0,03412;16,97992
0,1777;17,42654;-0,03402;17,42654
0,1794;17,86640;-0,03391;17,86640
0,1811;18,29986;-0,03380;18,29986
0,1828;18,72692;-0,03368;18,72692
0,1845;19,14827;-0,03355;19,14827
0,1861;19,56404;-0,03355;19,56404
0,1878;19,97480;-0,03342;19,97480
0,1895;20,38102;-0,03328;20,38102
0,1912;20,78294;-0,03313;20,78294
0,1931;21,22478;-0,03298;21,22478
0,1950;21,66220;-0,03283;21,66220
0,1968;22,09531;-0,03267;22,09531
0,1987;22,52435;-0,03249;22,52435
0,2006;22,94954;-0,03233;22,94954
0,2025;23,37113;-0,03214;23,37113
0,2044;23,78934;-0,03196;23,78934
0,2062;24,20441;-0,03177;24,20441
0,2081;24,61657;-0,03157;24,61657
0,2100;25,02628;-0,03136;25,02628
0,2119;25,43379;-0,03115;25,43379
0,2137;25,83931;-0,03094;25,83931
0,2156;26,24332;-0,03072;26,24332
0,2175;26,64594;-0,03049;26,64594
0,2194;27,04762;-0,03025;27,04762
0,2213;27,44861;-0,03001;27,44861
0,2231;27,84901;-0,02976;27,84901
0,2250;28,24930;-0,02951;28,24930
0,2269;28,64947;-0,02925;28,64947
0,2288;29,04976;-0,02899;29,04976
0,2306;29,45016;-0,02871;29,45016
0,2325;29,85091;-0,02843;29,85091
0,2344;30,25213;-0,02815;30,25213
0,2363;30,65393;-0,02786;30,65393
0,2381;31,05655;-0,02756;31,05655
0,2400;31,46021;-0,02725;31,46021
0,2419;31,86503;-0,02695;31,86503
0,2438;32,27091;-0,02663;32,27091
0,2457;32,67806;-0,02631;32,67806
0,2475;33,08650;-0,02598;33,08650
0,2494;33,49598;-0,02564;33,49598
0,2513;33,90674;-0,02530;33,90674
0,2532;34,31867;-0,02496;34,31867
0,2550;34,73176;-0,02460;34,73176
0,2569;35,14601;-0,02425;35,14601
0,2588;35,56132;-0,02388;35,56132
0,2607;35,97767;-0,02351;35,97767
0,2626;36,39506;-0,02313;36,39506
0,2644;36,81339;-0,02275;36,81339
0,2663;37,23242;-0,02236;37,23242
0,2682;37,65203;-0,02196;37,65203
0,2701;38,07222;-0,02156;38,07222
0,2719;38,49253;-0,02115;38,49253
0,2738;38,91295;-0,02074;38,91295
0,2757;39,33326;-0,02032;39,33326
0,2776;39,75333;-0,01990;39,75333
0,2795;40,17294;-0,01947;40,17294
0,2813;40,59197;-0,01903;40,59197
0,2832;41,01029;-0,01860;41,01029
0,2851;41,42769;-0,01816;41,42769
0,2870;41,84416;-0,01770;41,84416
0,2888;42,25946;-0,01725;42,25946
0,2907;42,67348;-0,01679;42,67348
0,2926;43,08587;-0,01632;43,08587
0,2945;43,49652;-0,01585;43,49652
0,2963;43,90542;-0,01537;43,90542
0,2982;44,31211;-0,01490;44,31211
0,3001;44,71659;-0,01441;44,71659
0,3020;45,11885;-0,01392;45,11885
0,3040;45,55871;-0,01342;45,55871
0,3061;45,99590;-0,01293;45,99590
0,3082;46,43029;-0,01243;46,43029
0,3102;46,86200;-0,01141;46,86200
0,3123;47,29057;-0,01089;47,29057
0,3144;47,71624;-0,01037;47,71624
0,3164;48,13875;-0,00984;48,13875
0,3185;48,55836;-0,00931;48,55836
0,3206;48,97518;-0,00879;48,97518
0,3226;49,38955;-0,00825;49,38955
0,3247;49,80148;-0,00771;49,80148
0,3268;50,21107;-0,00718;50,21107
0,3288;50,61811;-0,00663;50,61811
0,3309;51,02259;-0,00553;51,02259
0,3330;51,42462;-0,00498;51,42462
0,3352;51,86053;-0,00442;51,86053
0,3375;52,29399;-0,00386;52,29399
0,3397;52,72512;-0,00330;52,72512
0,3420;53,15416;-0,00273;53,15416
0,3442;53,58098;-0,00159;53,58098
0,3465;54,00571;-0,00103;54,00571
0,3487;54,42870;-0,00046;54,42870
0,3510;54,85005;0,00013;54,85005
0,3532;55,26978;0,00070;55,26978
0,3555;55,68822;0,00187;55,68822
0,3577;56,10538;0,00245;56,10538
0,3600;56,52127;0,00303;56,52127
0,3622;56,93599;0,00363;56,93599
0,3645;57,34966;0,00421;57,34966
0,3668;57,76240;0,00539;57,76240
0,3690;58,17456;0,00599;58,17456
0,3713;58,58602;0,00658;58,58602
0,3735;58,99690;0,00718;58,99690
0,3758;59,40720;0,00777;59,40720
0,3780;59,81691;0,00897;59,81691
0,3803;60,22593;0,00957;60,22593
0,3825;60,63448;0,01017;60,63448
0,3848;61,04268;0,01076;61,04268
0,3870;61,45065;0,01137;61,45065
0,3893;61,85839;0,01257;61,85839
0,3915;62,26613;0,01317;62,26613
0,3938;62,67375;0,01377;62,67375
0,3960;63,08102;0,01437;63,08102
0,3983;63,48771;0,01498;63,48771
0,4005;63,89381;0,01618;63,89381
0,4028;64,29922;0,01678;64,29922
0,4051;64,70416;0,01738;64,70416
0,4073;65,10876;0,01798;65,10876
0,4096;65,51277;0,01858;65,51277
0,4118;65,91620;0,01978;65,91620
0,4141;66,31905;0,02038;66,31905
0,4163;66,72120;0,02097;66,72120
0,4186;67,12288;0,02158;67,12288
0,4208;67,52386;0,02217;67,52386
0,4231;67,92462;0,02336;67,92462
0,4253;68,32490;0,02395;68,32490
0,4278;68,75801;0,02455;68,75801
0,4302;69,19043;0,02514;69,19043
0,4326;69,62168;0,02631;69,62168
0,4351;70,05164;0,02690;70,05164
0,4375;70,48022;0,02749;70,48022
0,4400;70,90751;0,02866;70,90751
0,4424;71,33352;0,02924;71,33352
0,4449;71,75848;0,02982;71,75848
0,4473;72,18216;0,03097;72,18216
0,4497;72,60456;0,03155;72,60456
0,4522;73,02557;0,03213;73,02557
0,4546;73,44518;0,03269;73,44518
0,4571;73,86374;0,03383;73,86374
0,4595;74,28114;0,03440;74,28114
0,4619;74,69702;0,03496;74,69702
0,4644;75,11128;0,03608;75,11128
0,4668;75,52390;0,03665;75,52390
0,4693;75,93501;0,03720;75,93501
0,4717;76,34461;0,03830;76,34461
0,4741;76,75316;0,03885;76,75316
0,4766;77,16067;0,03939;77,16067
0,4790;77,56724;0,03994;77,56724
0,4815;77,97265;0,04102;77,97265
0,4839;78,37677;0,04156;78,37677
0,4863;78,77974;0,04210;78,77974
0,4888;79,18154;0,04315;79,18154
0,4912;79,58218;0,04368;79,58218
0,4939;80,01249;0,04421;80,01249
0,4965;80,44141;0,04525;80,44141
0,4991;80,86847;0,04576;80,86847
0,5017;81,29378;0,04679;81,29378
0,5044;81,71700;0,04730;81,71700
0,5070;82,13847;0,04781;82,13847
0,5096;82,55808;0,04881;82,55808
0,5123;82,97618;0,04931;82,97618
0,5149;83,39287;0,05030;83,39287
0,5175;83,80818;0,05078;83,80818
0,5201;84,22231;0,05127;84,22231
0,5228;84,63552;0,05223;84,63552
0,5254;85,04791;0,05272;85,04791
0,5280;85,46007;0,05366;85,46007
0,5306;85,87200;0,05413;85,87200
0,5333;86,28393;0,05459;86,28393
0,5359;86,69539;0,05552;86,69539
0,5385;87,10638;0,05598;87,10638
0,5412;87,51656;0,05689;87,51656
0,5438;87,92593;0,05734;87,92593
0,5464;88,33436;0,05779;88,33436
0,5490;88,74187;0,05867;88,74187
0,5517;89,14867;0,05911;89,14867
0,5543;89,55466;0,05998;89,55466
0,5569;89,95984;0,06041;89,95984
0,5596;90,36397;0,06083;90,36397
0,5622;90,76728;0,06169;90,76728
0,5648;91,16943;0,06210;91,16943
0,5674;91,57065;0,06293;91,57065
0,5701;91,97082;0,06334;91,97082
0,5729;92,39857;0,06375;92,39857
0,5757;92,82517;0,06456;92,82517
0,5785;93,25048;0,06495;93,25048
0,5813;93,67474;0,06574;93,67474
0,5842;94,09796;0,06613;94,09796
0,5870;94,51990;0,06691;94,51990
0,5898;94,94021;0,06729;94,94021
0,5926;95,35900;0,06804;95,35900
0,5954;95,77616;0,06842;95,77616
0,5982;96,19193;0,06916;96,19193
0,6011;96,60642;0,06953;96,60642
0,6039;97,01986;0,07025;97,01986
0,6067;97,43248;0,07061;97,43248
0,6095;97,84441;0,07132;97,84441
0,6123;98,25575;0,07167;98,25575
0,6151;98,66652;0,07237;98,66652
0,6179;99,07658;0,07271;99,07658
0,6208;99,48525;0,07339;99,48525
0,6236;99,89252;0,07372;99,89252
0,6264;100,29839;0,07439;100,29839
0,6292;100,70322;0,07472;100,70322
0,6320;101,10700;0,07537;101,10700
0,6348;101,51008;0,07569;101,51008
0,6377;101,91246;0,07633;101,91246
0,6405;102,31426;0,07664;102,31426
0,6433;102,71583;0,07726;102,71583
0,6461;103,11751;0,07757;103,11751
0,6489;103,51920;0,07818;103,51920
0,6517;103,92135;0,07849;103,92135
0,6546;104,32384;0,07908;104,32384
0,6574;104,72669;0,07938;104,72669
0,6602;105,12977;0,07996;105,12977
0,6630;105,53262;0,08025;105,53262
0,6658;105,93512;0,08082;105,93512
0,6686;106,33669;0,08111;106,33669
0,6716;106,76223;0,08166;106,76223
0,6746;107,18126;0,08222;107,18126
0,6776;107,58993;0,08249;107,58993
0,6808;108,00860;0,08303;108,00860
0,6842;108,42868;0,08357;108,42868
0,6878;108,83688;0,08410;108,83688
0,6919;109,24904;0,08462;109,24904
0,6972;109,65619;0,08541;109,65619
0,7077;110,05892;0,08670;110,05892
0,7653;110,46107;0,09591;110,46107
0,7745;110,86916;0,09789;110,86916
0,7811;111,27585;0,09919;111,27585
0,7869;111,68824;0,10056;111,68824
0,7924;112,08911;0,10205;112,08911
0,7982;112,49312;0,10363;112,49312
0,8066;112,89865;0,10650;112,89865
1,2816;113,30522;0,65863;113,30522
1,2878;113,70888;0,66466;113,70888
1,2923;114,11091;0,67059;114,11091
1,2966;114,52237;0,67450;114,52237
1,3009;114,93104;0,67837;114,93104
1,3058;115,33703;0,68411;115,33703
1,3135;115,74046;0,69167;115,74046
1,4986;116,02237;1,29726;116,02237
1,5625;116,04204;1,91780;116,04204
1,6113;116,05985;2,53754;116,05985
1,6545;116,06940;3,15825;116,06940
1,6939;116,07906;3,75841;116,07906
1,7333;116,08674;4,36894;116,08674
1,7634;116,09384;4,83020;116,09384
1,7635;116,09396;4,83020;116,09396
