Part protocol
Network name;Part_OP10_MP-001_2020-08-26_16-31-42_0046_OK.csv
Protocol version;2.01.00

Index;Result information;Process values - curve related;Process values - EO related;Evaluation objects settings;Switch signal settings;Device information;Channel-X settings;Channel-Y settings;Cycle control settings;Evaluation settings;Trigger Y settings;Block settings;Measuring curve;Measuring points;Sequence;
Line;10;30;40;70;100;120;150;190;220;240;250;260;270;280;600;



Result information
Date;2020/08/26
Time;16:31:42
Cycle number;46
Total result;OK
Triggered switch signals
Part serial number;0046
Measuring program name;D57-Left
Measuring program number;1
Zero X offset;0,00;mm
Tara Y offset;0,0;kN









Process values - curve related
Block X;126,47;mm;XMIN-X;-0,16;mm
Block Y;7,5;kN;XMIN-Y;0,0;kN
Ref X;-;mm;XMAX-X;126,47;mm
Peak-peak X;126,63;mm;XMAX-Y;7,5;kN
Peak-peak Y;7,5;kN;YMIN-X;0,25;mm
;;;YMIN-Y;0,0;kN
;;;YMAX-X;126,47;mm
;;;YMAX-Y;7,5;kN

Process values - EO related;Result;Entry;Exit;XMIN-X;XMIN-Y;XMAX-X;XMAX-Y;YMIN-Y;YMIN-X;YMAX-Y;YMAX-X
;;;;mm;kN;mm;kN;kN;mm;kN;mm
EO-01;OK;0,7;0,7;;;;;0,7;124,50;0,7;125,52;;;;;;
EO-02;OK;126,43;126,44;126,43;4,5;126,43;4,9;;;;;;;;;;
EO-03;None;
EO-04;None;
























Evaluation objects settings;Reaction;X reference;Y-Reference;XMin;XMax;YMin;YMax;Entry;Exit;Curve part;Catch zone X;Catch zone Y
EO-01;UNI-BOX;ABSOLUTE;-;124,50;125,70;0,5;3,0;LEFT;RIGHT;ANY;+50%;+50%
EO-02;UNI-BOX;ABSOLUTE;-;125,80;127,20;4,5;5,5;BELOW;ABOVE;ANY;+50%;+50%
EO-03;OFF
EO-04;OFF

























Switch signal settings;Channel;Threshold at;;Trigger from;Reference;Latch until
Type S1;OFF
Type S2;OFF

















Device information
Device type;maXYmos BL
Device type number;5867B1011
Device serial number;5182443
Firmware version;2.3.2 (r22473-BL_v2.3.x)
-
-
-
-
-
IP Address;10.0.0.18
Network name;OP10
Profibus address;10
-
-
-
Station name;OP10
Company name;
Comment;











Channel-X settings
Use the settings from global setup;True
Sensor-X type;Â±10V
Unit;mm
Used range from;0,00;mm
Used range to;200,00;mm
Decimal places;XXXX.XX
Scaling by;Teach-In
Point 1;0,00;mm;-0,350;%
Point 2;200,00;mm;10,000;%
Invert signal;FALSE
Filter;20 Hz
Test point;0,00;mm
Tolerance;2,00;mm
Enable sensor test by dig-input;FALSE
Zoom from;110,00;mm
Zoom to;133,11;mm























Channel-Y settings
Use the settings from global setup;True
Sensor-Y type;Strain Gage
Unit;kN
Used range from;0,0;kN
Used range to;20,0;kN
Decimal places;XXXXX.X
Scaling by;Teach-In
Point 1;0,0;kN;-0,01562;%
Point 2;20,0;kN;2,00000;%
Invert signal;FALSE
Filter;1 Hz
Piezo reset;-
Test point;0,0;kN
Tolerance;0,1;kN
Enable sensor test by dig-input;FALSE
Zoom from;0,0;kN
Zoom to;6,0;kN












Cycle control settings
Use the settings from global setup;True
Measuring function;Y (X)
Delta-X;Automatic
START condition;Dig-Input
STOP condition;Dig-Input
Cycle time out;20,00;s
Turning point RIGHT;YMAX
Turning point LEFT;NONE
Cut curve at;NONE










Evaluation settings
Capture only first NOK-EO for statistics;False
Hysteresis-X;0,0;%
Hysteresis-Y;100,0;%






Trigger Y settings
Threshold;1,9;kN
Value X at TRIGGER Y;0,00;mm
Approach from;BELOW






Block settings
Value X at block;XMAX
Block at;0,00;mm







Measuring curve
Number of measuring points;316
Ref. Graph on;ABSOLUTE
Curve segments;0;315;314;316;


Time;X(ABSOLUTE);Y;X (ABSOLUTE)


s;mm;kN;mm
0,0000;-0,16409;-0,03375;-0,16409
0,0988;0,25005;-0,03381;0,25005
0,1027;0,66837;-0,03381;0,66837
0,1055;1,08600;-0,03381;1,08600
0,1078;1,49421;-0,03381;1,49421
0,1098;1,92673;-0,03381;1,92673
0,1117;2,36846;-0,03381;2,36846
0,1134;2,80518;-0,03381;2,80518
0,1149;3,22409;-0,03381;3,22409
0,1164;3,67163;-0,03381;3,67163
0,1177;4,08647;-0,03380;4,08647
0,1190;4,52307;-0,03380;4,52307
0,1203;4,98039;-0,03380;4,98039
0,1215;5,38662;-0,03380;5,38662
0,1226;5,80273;-0,03379;5,80273
0,1237;6,22397;-0,03379;6,22397
0,1248;6,64509;-0,03378;6,64509
0,1260;7,06109;-0,03378;7,06109
0,1271;7,46778;-0,03378;7,46778
0,1284;7,92685;-0,03377;7,92685
0,1297;8,36706;-0,03377;8,36706
0,1310;8,78818;-0,03376;8,78818
0,1324;9,19080;-0,03375;9,19080
0,1339;9,62996;-0,03374;9,62996
0,1354;10,04875;-0,03374;10,04875
0,1369;10,44927;-0,03373;10,44927
0,1386;10,88169;-0,03372;10,88169
0,1402;11,29978;-0,03370;11,29978
0,1419;11,70868;-0,03369;11,70868
0,1436;12,11293;-0,03367;12,11293
0,1453;12,51543;-0,03365;12,51543
0,1470;12,91769;-0,03362;12,91769
0,1487;13,32089;-0,03362;13,32089
0,1504;13,72641;-0,03360;13,72641
0,1521;14,13520;-0,03358;14,13520
0,1538;14,54759;-0,03355;14,54759
0,1554;14,96324;-0,03352;14,96324
0,1571;15,38145;-0,03349;15,38145
0,1588;15,80199;-0,03346;15,80199
0,1605;16,22451;-0,03342;16,22451
0,1622;16,64901;-0,03338;16,64901
0,1639;17,07490;-0,03335;17,07490
0,1656;17,50196;-0,03335;17,50196
0,1673;17,92995;-0,03331;17,92995
0,1690;18,35899;-0,03326;18,35899
0,1707;18,78930;-0,03322;18,78930
0,1723;19,22090;-0,03317;19,22090
0,1740;19,65355;-0,03311;19,65355
0,1757;20,08677;-0,03307;20,08677
0,1774;20,52105;-0,03301;20,52105
0,1791;20,95684;-0,03295;20,95684
0,1808;21,39460;-0,03289;21,39460
0,1825;21,83412;-0,03289;21,83412
0,1842;22,27502;-0,03283;22,27502
0,1859;22,71687;-0,03276;22,71687
0,1876;23,15987;-0,03270;23,15987
0,1892;23,60439;-0,03262;23,60439
0,1909;24,05042;-0,03255;24,05042
0,1926;24,49796;-0,03248;24,49796
0,1943;24,94632;-0,03240;24,94632
0,1960;25,39538;-0,03232;25,39538
0,1977;25,84478;-0,03224;25,84478
0,1992;26,24495;-0,03224;26,24495
0,2007;26,64571;-0,03215;26,64571
0,2022;27,04704;-0,03207;27,04704
0,2037;27,44861;-0,03198;27,44861
0,2052;27,85006;-0,03188;27,85006
0,2067;28,25116;-0,03188;28,25116
0,2082;28,65168;-0,03179;28,65168
0,2097;29,05185;-0,03170;29,05185
0,2114;29,50126;-0,03160;29,50126
0,2131;29,94973;-0,03149;29,94973
0,2148;30,39681;-0,03139;30,39681
0,2165;30,84203;-0,03128;30,84203
0,2182;31,28561;-0,03128;31,28561
0,2198;31,72722;-0,03117;31,72722
0,2215;32,16697;-0,03106;32,16697
0,2232;32,60462;-0,03095;32,60462
0,2249;33,04017;-0,03083;33,04017
0,2266;33,47352;-0,03072;33,47352
0,2283;33,90476;-0,03060;33,90476
0,2300;34,33392;-0,03048;34,33392
0,2317;34,76109;-0,03035;34,76109
0,2334;35,18652;-0,03023;35,18652
0,2351;35,60997;-0,03023;35,60997
0,2367;36,03121;-0,03010;36,03121
0,2384;36,45012;-0,02997;36,45012
0,2401;36,86670;-0,02983;36,86670
0,2418;37,28049;-0,02970;37,28049
0,2435;37,69183;-0,02956;37,69183
0,2452;38,10039;-0,02942;38,10039
0,2469;38,50649;-0,02928;38,50649
0,2486;38,90992;-0,02914;38,90992
0,2503;39,31114;-0,02900;39,31114
0,2521;39,75449;-0,02886;39,75449
0,2540;40,19575;-0,02871;40,19575
0,2559;40,63503;-0,02856;40,63503
0,2578;41,07257;-0,02841;41,07257
0,2596;41,50789;-0,02826;41,50789
0,2615;41,94077;-0,02812;41,94077
0,2634;42,37108;-0,02796;42,37108
0,2653;42,79861;-0,02780;42,79861
0,2672;43,22357;-0,02765;43,22357
0,2690;43,64609;-0,02750;43,64609
0,2709;44,06616;-0,02734;44,06616
0,2728;44,48414;-0,02718;44,48414
0,2747;44,90003;-0,02701;44,90003
0,2765;45,31405;-0,02686;45,31405
0,2784;45,72644;-0,02669;45,72644
0,2803;46,13697;-0,02653;46,13697
0,2822;46,54564;-0,02637;46,54564
0,2841;46,95233;-0,02620;46,95233
0,2859;47,35715;-0,02603;47,35715
0,2878;47,76035;-0,02587;47,76035
0,2897;48,16192;-0,02570;48,16192
0,2916;48,56209;-0,02553;48,56209
0,2936;49,00067;-0,02537;49,00067
0,2957;49,43774;-0,02520;49,43774
0,2978;49,87306;-0,02502;49,87306
0,2998;50,30675;-0,02486;50,30675
0,3019;50,73870;-0,02469;50,73870
0,3040;51,16925;-0,02451;51,16925
0,3060;51,59852;-0,02435;51,59852
0,3081;52,02674;-0,02417;52,02674
0,3101;52,45426;-0,02400;52,45426
0,3122;52,88109;-0,02365;52,88109
0,3143;53,30710;-0,02348;53,30710
0,3163;53,73218;-0,02330;53,73218
0,3184;54,15621;-0,02313;54,15621
0,3205;54,57920;-0,02295;54,57920
0,3225;55,00125;-0,02278;55,00125
0,3246;55,42249;-0,02261;55,42249
0,3267;55,84303;-0,02243;55,84303
0,3287;56,26287;-0,02226;56,26287
0,3308;56,68178;-0,02208;56,68178
0,3329;57,09976;-0,02172;57,09976
0,3349;57,51646;-0,02154;57,51646
0,3370;57,93199;-0,02137;57,93199
0,3391;58,34625;-0,02119;58,34625
0,3411;58,75934;-0,02102;58,75934
0,3432;59,17126;-0,02084;59,17126
0,3453;59,58203;-0,02066;59,58203
0,3473;59,99186;-0,02049;59,99186
0,3494;60,40064;-0,02031;60,40064
0,3515;60,80838;-0,02013;60,80838
0,3535;61,21483;-0,01978;61,21483
0,3556;61,62001;-0,01960;61,62001
0,3576;62,02402;-0,01942;62,02402
0,3597;62,42687;-0,01925;62,42687
0,3618;62,82867;-0,01907;62,82867
0,3638;63,22965;-0,01890;63,22965
0,3659;63,62994;-0,01872;63,62994
0,3682;64,06573;-0,01853;64,06573
0,3704;64,50070;-0,01818;64,50070
0,3727;64,93440;-0,01801;64,93440
0,3749;65,36681;-0,01783;65,36681
0,3772;65,79759;-0,01766;65,79759
0,3794;66,22686;-0,01748;66,22686
0,3817;66,65485;-0,01713;66,65485
0,3839;67,08144;-0,01696;67,08144
0,3862;67,50722;-0,01679;67,50722
0,3884;67,93218;-0,01661;67,93218
0,3907;68,35610;-0,01643;68,35610
0,3929;68,77897;-0,01608;68,77897
0,3952;69,20044;-0,01592;69,20044
0,3974;69,62074;-0,01574;69,62074
0,3997;70,04024;-0,01556;70,04024
0,4020;70,45915;-0,01539;70,45915
0,4042;70,87759;-0,01504;70,87759
0,4065;71,29545;-0,01487;71,29545
0,4087;71,71250;-0,01470;71,71250
0,4110;72,12862;-0,01453;72,12862
0,4132;72,54322;-0,01436;72,54322
0,4155;72,95631;-0,01401;72,95631
0,4177;73,36801;-0,01384;73,36801
0,4200;73,77842;-0,01367;73,77842
0,4222;74,18790;-0,01350;74,18790
0,4245;74,59622;-0,01333;74,59622
0,4267;75,00361;-0,01299;75,00361
0,4290;75,40995;-0,01282;75,40995
0,4312;75,81501;-0,01265;75,81501
0,4335;76,21890;-0,01248;76,21890
0,4357;76,62140;-0,01231;76,62140
0,4380;77,02274;-0,01197;77,02274
0,4404;77,45596;-0,01181;77,45596
0,4429;77,88779;-0,01164;77,88779
0,4453;78,31799;-0,01147;78,31799
0,4478;78,74657;-0,01114;78,74657
0,4502;79,17362;-0,01097;79,17362
0,4526;79,59940;-0,01081;79,59940
0,4551;80,02402;-0,01047;80,02402
0,4575;80,44735;-0,01031;80,44735
0,4600;80,86952;-0,01014;80,86952
0,4624;81,29052;-0,00981;81,29052
0,4648;81,71013;-0,00965;81,71013
0,4673;82,12846;-0,00948;82,12846
0,4697;82,54574;-0,00931;82,54574
0,4722;82,96174;-0,00899;82,96174
0,4746;83,37646;-0,00882;83,37646
0,4770;83,79002;-0,00867;83,79002
0,4795;84,20218;-0,00833;84,20218
0,4819;84,61317;-0,00818;84,61317
0,4844;85,02301;-0,00801;85,02301
0,4868;85,43202;-0,00769;85,43202
0,4893;85,84057;-0,00753;85,84057
0,4917;86,24854;-0,00737;86,24854
0,4941;86,65593;-0,00720;86,65593
0,4966;87,06285;-0,00688;87,06285
0,4990;87,46896;-0,00672;87,46896
0,5015;87,87413;-0,00657;87,87413
0,5039;88,27791;-0,00624;88,27791
0,5063;88,68018;-0,00608;88,68018
0,5088;89,08093;-0,00593;89,08093
0,5114;89,51101;-0,00561;89,51101
0,5140;89,93924;-0,00545;89,93924
0,5167;90,36560;-0,00529;90,36560
0,5193;90,79044;-0,00497;90,79044
0,5219;91,21389;-0,00482;91,21389
0,5245;91,63630;-0,00450;91,63630
0,5272;92,05800;-0,00434;92,05800
0,5298;92,47912;-0,00419;92,47912
0,5324;92,89978;-0,00387;92,89978
0,5351;93,31997;-0,00371;93,31997
0,5377;93,73981;-0,00341;93,73981
0,5403;94,15884;-0,00325;94,15884
0,5429;94,57716;-0,00309;94,57716
0,5456;94,99456;-0,00279;94,99456
0,5482;95,41080;-0,00263;95,41080
0,5508;95,82586;-0,00233;95,82586
0,5535;96,23977;-0,00217;96,23977
0,5561;96,65263;-0,00201;96,65263
0,5587;97,06455;-0,00171;97,06455
0,5613;97,47567;-0,00156;97,47567
0,5640;97,88631;-0,00124;97,88631
0,5666;98,29614;-0,00109;98,29614
0,5692;98,70493;-0,00094;98,70493
0,5719;99,11266;-0,00064;99,11266
0,5745;99,51889;-0,00048;99,51889
0,5771;99,92348;-0,00019;99,92348
0,5797;100,32691;-0,00003;100,32691
0,5824;100,72906;0,00012;100,72906
0,5850;101,13051;0,00042;101,13051
0,5876;101,53138;0,00057;101,53138
0,5903;101,93143;0,00087;101,93143
0,5931;102,35884;0,00102;102,35884
0,5959;102,78462;0,00132;102,78462
0,5987;103,20865;0,00147;103,20865
0,6015;103,62884;0,00177;103,62884
0,6043;104,04228;0,00191;104,04228
0,6072;104,44571;0,00221;104,44571
0,6102;104,86346;0,00236;104,86346
0,6132;105,26782;0,00265;105,26782
0,6164;105,68417;0,00294;105,68417
0,6195;106,08888;0,00309;106,08888
0,6229;106,50802;0,00339;106,50802
0,6263;106,92100;0,00368;106,92100
0,6297;107,33083;0,00398;107,33083
0,6331;107,73984;0,00413;107,73984
0,6364;108,14909;0,00442;108,14909
0,6398;108,55962;0,00472;108,55962
0,6432;108,97097;0,00501;108,97097
0,6466;109,38126;0,00531;109,38126
0,6500;109,78830;0,00547;109,78830
0,6533;110,18917;0,00576;110,18917
0,6569;110,60133;0,00608;110,60133
0,6607;111,01850;0,00638;111,01850
0,6646;111,43601;0,00670;111,43601
0,6687;111,85108;0,00702;111,85108
0,6730;112,26266;0,00751;112,26266
0,6776;112,67144;0,00785;112,67144
0,6822;113,08022;0,00837;113,08022
0,6871;113,49285;0,00872;113,49285
0,6920;113,89965;0,00927;113,89965
0,6969;114,30669;0,00965;114,30669
0,7018;114,71827;0,01024;114,71827
0,7065;115,11995;0,01087;115,11995
0,7112;115,52734;0,01130;115,52734
0,7159;115,94346;0,01198;115,94346
0,7204;116,35992;0,01244;116,35992
0,7245;116,76917;0,01293;116,76917
0,7282;117,17586;0,01343;117,17586
0,7318;117,59594;0,01396;117,59594
0,7354;118,00495;0,01450;118,00495
0,7399;118,41327;0,01507;118,41327
0,7493;118,81332;0,01659;118,81332
1,2565;118,99060;0,61769;118,99060
1,2860;119,39333;0,65313;119,39333
1,2903;119,81154;0,65993;119,81154
1,2941;120,23138;0,66442;120,23138
1,2977;120,64284;0,66665;120,64284
1,3012;121,05395;0,67109;121,05395
1,3050;121,45855;0,67551;121,45855
1,3097;121,86640;0,68208;121,86640
1,3179;122,26657;0,69080;122,26657
1,3298;122,67291;0,70606;122,67291
1,3363;123,07809;0,71264;123,07809
1,3408;123,48943;0,71706;123,48943
1,3448;123,89845;0,72373;123,89845
1,3485;124,29932;0,72822;124,29932
1,3523;124,70635;0,73275;124,70635
1,3560;125,11304;0,73729;125,11304
1,3602;125,52357;0,74188;125,52357
1,3656;125,92887;0,74882;125,92887
1,5851;126,32892;1,29058;126,32892
1,6808;126,36849;1,89561;126,36849
1,7484;126,38665;2,50340;126,38665
1,8047;126,40167;3,10551;126,40167
1,8573;126,41435;3,71859;126,41435
1,9080;126,42506;4,33124;126,42506
1,9587;126,43251;4,94357;126,43251
2,0113;126,44334;5,56084;126,44334
2,0657;126,45148;6,16859;126,45148
2,1239;126,45777;6,77477;126,45777
2,1877;126,46580;7,38454;126,46580
2,1990;126,46697;7,48619;126,46697
2,1999;126,46720;7,48619;126,46720
