Part protocol
Network name;Part_OP10_MP-002_2020-08-26_15-26-47_0026_OK.csv
Protocol version;2.01.00

Index;Result information;Process values - curve related;Process values - EO related;Evaluation objects settings;Switch signal settings;Device information;Channel-X settings;Channel-Y settings;Cycle control settings;Evaluation settings;Trigger Y settings;Block settings;Measuring curve;Measuring points;Sequence;
Line;10;30;40;70;100;120;150;190;220;240;250;260;270;280;570;



Result information
Date;2020/08/26
Time;15:26:47
Cycle number;26
Total result;OK
Triggered switch signals
Part serial number;0026
Measuring program name;D57-Right
Measuring program number;2
Zero X offset;0,00;mm
Tara Y offset;0,0;kN









Process values - curve related
Block X;116,09;mm;XMIN-X;-0,01;mm
Block Y;4,6;kN;XMIN-Y;0,0;kN
Ref X;-;mm;XMAX-X;116,09;mm
Peak-peak X;116,09;mm;XMAX-Y;4,6;kN
Peak-peak Y;4,6;kN;YMIN-X;-0,01;mm
;;;YMIN-Y;0,0;kN
;;;YMAX-X;116,09;mm
;;;YMAX-Y;4,6;kN

Process values - EO related;Result;Entry;Exit;XMIN-X;XMIN-Y;XMAX-X;XMAX-Y;YMIN-Y;YMIN-X;YMAX-Y;YMAX-X
;;;;mm;kN;mm;kN;kN;mm;kN;mm
EO-01;OK;0,7;0,7;;;;;0,7;115,00;0,7;115,35;;;;;;
EO-02;OK;;116,07;116,05;2,3;116,06;3,2;2,3;116,05;;;;;;;;
EO-03;None;
EO-04;None;
























Evaluation objects settings;Reaction;X reference;Y-Reference;XMin;XMax;YMin;YMax;Entry;Exit;Curve part;Catch zone X;Catch zone Y
EO-01;UNI-BOX;ABSOLUTE;-;115,00;115,50;0,4;2,0;LEFT;RIGHT;ANY;+50%;+50%
EO-02;UNI-BOX;ABSOLUTE;-;115,40;117,10;2,3;3,3;ANY;ABOVE;ANY;+50%;+50%
EO-03;OFF
EO-04;OFF

























Switch signal settings;Channel;Threshold at;;Trigger from;Reference;Latch until
Type S1;OFF
Type S2;OFF

















Device information
Device type;maXYmos BL
Device type number;5867B1011
Device serial number;5182443
Firmware version;2.3.2 (r22473-BL_v2.3.x)
-
-
-
-
-
IP Address;10.0.0.18
Network name;OP10
Profibus address;10
-
-
-
Station name;OP10
Company name;
Comment;











Channel-X settings
Use the settings from global setup;True
Sensor-X type;Â±10V
Unit;mm
Used range from;0,00;mm
Used range to;200,00;mm
Decimal places;XXXX.XX
Scaling by;Teach-In
Point 1;0,00;mm;-0,350;%
Point 2;200,00;mm;10,000;%
Invert signal;FALSE
Filter;20 Hz
Test point;0,00;mm
Tolerance;2,00;mm
Enable sensor test by dig-input;FALSE
Zoom from;100,00;mm
Zoom to;120,00;mm























Channel-Y settings
Use the settings from global setup;True
Sensor-Y type;Strain Gage
Unit;kN
Used range from;0,0;kN
Used range to;20,0;kN
Decimal places;XXXXX.X
Scaling by;Teach-In
Point 1;0,0;kN;-0,01562;%
Point 2;20,0;kN;2,00000;%
Invert signal;FALSE
Filter;1 Hz
Piezo reset;-
Test point;0,0;kN
Tolerance;0,1;kN
Enable sensor test by dig-input;FALSE
Zoom from;0,0;kN
Zoom to;5,0;kN












Cycle control settings
Use the settings from global setup;True
Measuring function;Y (X)
Delta-X;Automatic
START condition;Dig-Input
STOP condition;Dig-Input
Cycle time out;20,00;s
Turning point RIGHT;YMAX
Turning point LEFT;NONE
Cut curve at;NONE










Evaluation settings
Capture only first NOK-EO for statistics;False
Hysteresis-X;0,0;%
Hysteresis-Y;100,0;%






Trigger Y settings
Threshold;1,8;kN
Value X at TRIGGER Y;0,00;mm
Approach from;BELOW






Block settings
Value X at block;XMAX
Block at;0,00;mm







Measuring curve
Number of measuring points;288
Ref. Graph on;ABSOLUTE
Curve segments;0;287;286;288;


Time;X(ABSOLUTE);Y;X (ABSOLUTE)


s;mm;kN;mm
0,0000;-0,00766;-0,03557;-0,00766
0,1086;0,40997;-0,03553;0,40997
0,1118;0,81701;-0,03552;0,81701
0,1141;1,22428;-0,03551;1,22428
0,1159;1,64459;-0,03551;1,64459
0,1176;2,08631;-0,03550;2,08631
0,1191;2,52548;-0,03549;2,52548
0,1204;2,93903;-0,03549;2,93903
0,1217;3,37168;-0,03548;3,37168
0,1231;3,81492;-0,03547;3,81492
0,1244;4,26188;-0,03547;4,26188
0,1257;4,70756;-0,03546;4,70756
0,1270;5,14824;-0,03545;5,14824
0,1283;5,58111;-0,03545;5,58111
0,1296;6,00410;-0,03543;6,00410
0,1309;6,41602;-0,03540;6,41602
0,1323;6,81689;-0,03538;6,81689
0,1338;7,26327;-0,03538;7,26327
0,1353;7,69976;-0,03535;7,69976
0,1368;8,12880;-0,03533;8,12880
0,1383;8,55225;-0,03530;8,55225
0,1398;8,97174;-0,03526;8,97174
0,1413;9,38925;-0,03526;9,38925
0,1428;9,80665;-0,03522;9,80665
0,1443;10,22509;-0,03518;10,22509
0,1458;10,64540;-0,03513;10,64540
0,1473;11,06769;-0,03509;11,06769
0,1488;11,49207;-0,03509;11,49207
0,1503;11,91796;-0,03503;11,91796
0,1518;12,34502;-0,03497;12,34502
0,1533;12,77243;-0,03491;12,77243
0,1548;13,19960;-0,03484;13,19960
0,1563;13,62561;-0,03484;13,62561
0,1578;14,04999;-0,03477;14,04999
0,1593;14,47181;-0,03469;14,47181
0,1608;14,89049;-0,03460;14,89049
0,1623;15,30545;-0,03452;15,30545
0,1638;15,71609;-0,03452;15,71609
0,1653;16,12231;-0,03443;16,12231
0,1668;16,52377;-0,03434;16,52377
0,1685;16,96980;-0,03423;16,96980
0,1702;17,40977;-0,03412;17,40977
0,1719;17,84393;-0,03401;17,84393
0,1736;18,27227;-0,03390;18,27227
0,1753;18,69514;-0,03390;18,69514
0,1769;19,11277;-0,03377;19,11277
0,1786;19,52574;-0,03364;19,52574
0,1803;19,93429;-0,03351;19,93429
0,1820;20,33889;-0,03337;20,33889
0,1837;20,74011;-0,03323;20,74011
0,1856;21,18195;-0,03308;21,18195
0,1875;21,62006;-0,03292;21,62006
0,1893;22,05469;-0,03275;22,05469
0,1912;22,48605;-0,03259;22,48605
0,1931;22,91439;-0,03241;22,91439
0,1950;23,33993;-0,03223;23,33993
0,1968;23,76304;-0,03204;23,76304
0,1987;24,18358;-0,03185;24,18358
0,2006;24,60202;-0,03165;24,60202
0,2025;25,01825;-0,03145;25,01825
0,2044;25,43286;-0,03124;25,43286
0,2062;25,84595;-0,03101;25,84595
0,2081;26,25811;-0,03079;26,25811
0,2100;26,66934;-0,03056;26,66934
0,2119;27,08010;-0,03033;27,08010
0,2137;27,49016;-0,03008;27,49016
0,2156;27,89964;-0,02983;27,89964
0,2175;28,30878;-0,02958;28,30878
0,2194;28,71733;-0,02932;28,71733
0,2213;29,12541;-0,02905;29,12541
0,2231;29,53303;-0,02877;29,53303
0,2250;29,94030;-0,02850;29,94030
0,2269;30,34734;-0,02821;30,34734
0,2288;30,75403;-0,02791;30,75403
0,2306;31,16084;-0,02762;31,16084
0,2325;31,56753;-0,02731;31,56753
0,2344;31,97433;-0,02700;31,97433
0,2363;32,38125;-0,02668;32,38125
0,2381;32,78829;-0,02636;32,78829
0,2400;33,19544;-0,02602;33,19544
0,2419;33,60295;-0,02569;33,60295
0,2438;34,01057;-0,02535;34,01057
0,2457;34,41819;-0,02500;34,41819
0,2475;34,82604;-0,02464;34,82604
0,2494;35,23366;-0,02428;35,23366
0,2513;35,64116;-0,02392;35,64116
0,2532;36,04844;-0,02354;36,04844
0,2550;36,45559;-0,02316;36,45559
0,2569;36,86251;-0,02278;36,86251
0,2588;37,26932;-0,02239;37,26932
0,2607;37,67600;-0,02200;37,67600
0,2626;38,08234;-0,02160;38,08234
0,2644;38,48845;-0,02119;38,48845
0,2663;38,89421;-0,02077;38,89421
0,2682;39,29938;-0,02036;39,29938
0,2701;39,70421;-0,01993;39,70421
0,2719;40,10846;-0,01951;40,10846
0,2738;40,51212;-0,01907;40,51212
0,2757;40,91531;-0,01863;40,91531
0,2776;41,31758;-0,01818;41,31758
0,2795;41,71903;-0,01774;41,71903
0,2813;42,11955;-0,01728;42,11955
0,2834;42,55895;-0,01682;42,55895
0,2855;42,99718;-0,01636;42,99718
0,2875;43,43401;-0,01589;43,43401
0,2896;43,86957;-0,01541;43,86957
0,2917;44,30361;-0,01493;44,30361
0,2937;44,73614;-0,01395;44,73614
0,2958;45,16681;-0,01346;45,16681
0,2979;45,59573;-0,01296;45,59573
0,2999;46,02255;-0,01246;46,02255
0,3020;46,44728;-0,01196;46,44728
0,3040;46,86992;-0,01144;46,86992
0,3061;47,29046;-0,01093;47,29046
0,3082;47,70914;-0,01042;47,70914
0,3102;48,12583;-0,00989;48,12583
0,3123;48,54079;-0,00937;48,54079
0,3144;48,95411;-0,00831;48,95411
0,3164;49,36592;-0,00777;49,36592
0,3185;49,77633;-0,00722;49,77633
0,3206;50,18512;-0,00669;50,18512
0,3226;50,59216;-0,00614;50,59216
0,3247;50,99756;-0,00558;50,99756
0,3268;51,40123;-0,00504;51,40123
0,3288;51,80326;-0,00448;51,80326
0,3309;52,20366;-0,00392;52,20366
0,3331;52,63840;-0,00280;52,63840
0,3354;53,07117;-0,00223;53,07117
0,3377;53,50183;-0,00166;53,50183
0,3399;53,93075;-0,00109;53,93075
0,3422;54,35804;-0,00051;54,35804
0,3444;54,78394;0,00064;54,78394
0,3467;55,20878;0,00122;55,20878
0,3489;55,63258;0,00180;55,63258
0,3512;56,05533;0,00239;56,05533
0,3534;56,47704;0,00297;56,47704
0,3557;56,89746;0,00414;56,89746
0,3579;57,31707;0,00474;57,31707
0,3602;57,73575;0,00533;57,73575
0,3624;58,15396;0,00592;58,15396
0,3647;58,57159;0,00651;58,57159
0,3669;58,98899;0,00770;58,98899
0,3692;59,40604;0,00830;59,40604
0,3714;59,82285;0,00890;59,82285
0,3737;60,23932;0,00950;60,23932
0,3760;60,65532;0,01010;60,65532
0,3782;61,07109;0,01130;61,07109
0,3805;61,48639;0,01190;61,48639
0,3827;61,90122;0,01250;61,90122
0,3850;62,31536;0,01311;62,31536
0,3872;62,72857;0,01371;62,72857
0,3895;63,14096;0,01491;63,14096
0,3917;63,55254;0,01551;63,55254
0,3940;63,96330;0,01611;63,96330
0,3962;64,37325;0,01672;64,37325
0,3985;64,78261;0,01732;64,78261
0,4007;65,19140;0,01851;65,19140
0,4030;65,59925;0,01911;65,59925
0,4052;66,00617;0,01971;66,00617
0,4075;66,41228;0,02032;66,41228
0,4097;66,81769;0,02092;66,81769
0,4120;67,22263;0,02211;67,22263
0,4142;67,62711;0,02270;67,62711
0,4165;68,03100;0,02330;68,03100
0,4188;68,43420;0,02390;68,43420
0,4210;68,83635;0,02449;68,83635
0,4233;69,23734;0,02568;69,23734
0,4257;69,67056;0,02626;69,67056
0,4281;70,10228;0,02685;70,10228
0,4306;70,53283;0,02743;70,53283
0,4330;70,96221;0,02861;70,96221
0,4355;71,39032;0,02919;71,39032
0,4379;71,81703;0,02977;71,81703
0,4403;72,24222;0,03092;72,24222
0,4428;72,66567;0,03151;72,66567
0,4452;73,08738;0,03208;73,08738
0,4477;73,50722;0,03322;73,50722
0,4501;73,92520;0,03379;73,92520
0,4525;74,34131;0,03436;74,34131
0,4550;74,75568;0,03492;74,75568
0,4574;75,16819;0,03604;75,16819
0,4599;75,57931;0,03661;75,57931
0,4623;75,98902;0,03716;75,98902
0,4648;76,39734;0,03827;76,39734
0,4672;76,80438;0,03882;76,80438
0,4696;77,21060;0,03937;77,21060
0,4721;77,61589;0,04045;77,61589
0,4745;78,02025;0,04100;78,02025
0,4770;78,42357;0,04153;78,42357
0,4794;78,82606;0,04206;78,82606
0,4818;79,22740;0,04313;79,22740
0,4843;79,62745;0,04365;79,62745
0,4869;80,05684;0,04418;80,05684
0,4895;80,48483;0,04523;80,48483
0,4922;80,91096;0,04574;80,91096
0,4948;81,33510;0,04676;81,33510
0,4974;81,75727;0,04727;81,75727
0,5000;82,17758;0,04778;82,17758
0,5027;82,59661;0,04878;82,59661
0,5053;83,01447;0,04928;83,01447
0,5079;83,43152;0,05027;83,43152
0,5106;83,84787;0,05076;83,84787
0,5132;84,26364;0,05124;84,26364
0,5158;84,67870;0,05222;84,67870
0,5184;85,09331;0,05269;85,09331
0,5211;85,50733;0,05364;85,50733
0,5237;85,92065;0,05411;85,92065
0,5263;86,33351;0,05458;86,33351
0,5290;86,74567;0,05550;86,74567
0,5316;87,15725;0,05596;87,15725
0,5342;87,56824;0,05686;87,56824
0,5368;87,97889;0,05732;87,97889
0,5395;88,38919;0,05776;88,38919
0,5421;88,79902;0,05865;88,79902
0,5447;89,20838;0,05908;89,20838
0,5474;89,61682;0,05995;89,61682
0,5500;90,02432;0,06038;90,02432
0,5526;90,43078;0,06081;90,43078
0,5552;90,83619;0,06166;90,83619
0,5579;91,24066;0,06207;91,24066
0,5605;91,64409;0,06290;91,64409
0,5631;92,04648;0,06331;92,04648
0,5658;92,44793;0,06371;92,44793
0,5684;92,84810;0,06452;92,84810
0,5712;93,27539;0,06493;93,27539
0,5740;93,70117;0,06571;93,70117
0,5768;94,12508;0,06610;94,12508
0,5796;94,54737;0,06687;94,54737
0,5825;94,96826;0,06726;94,96826
0,5853;95,38810;0,06801;95,38810
0,5881;95,80678;0,06839;95,80678
0,5909;96,22406;0,06913;96,22406
0,5937;96,64006;0,06949;96,64006
0,5965;97,05454;0,07021;97,05454
0,5994;97,46775;0,07057;97,46775
0,6022;97,87979;0,07128;97,87979
0,6050;98,29102;0,07164;98,29102
0,6078;98,70167;0,07233;98,70167
0,6106;99,11138;0,07267;99,11138
0,6134;99,52017;0,07335;99,52017
0,6163;99,92779;0,07368;99,92779
0,6191;100,33424;0,07435;100,33424
0,6219;100,73965;0,07467;100,73965
0,6247;101,14401;0,07533;101,14401
0,6275;101,54768;0,07564;101,54768
0,6303;101,95099;0,07628;101,95099
0,6332;102,35407;0,07660;102,35407
0,6360;102,75692;0,07722;102,75692
0,6388;103,15942;0,07752;103,15942
0,6416;103,56168;0,07813;103,56168
0,6444;103,96418;0,07843;103,96418
0,6472;104,36703;0,07903;104,36703
0,6501;104,77022;0,07932;104,77022
0,6529;105,17365;0,07990;105,17365
0,6557;105,57708;0,08020;105,57708
0,6585;105,98016;0,08076;105,98016
0,6613;106,38185;0,08105;106,38185
0,6643;106,80646;0,08161;106,80646
0,6673;107,22246;0,08216;107,22246
0,6703;107,62589;0,08243;107,62589
0,6735;108,03654;0,08298;108,03654
0,6769;108,44439;0,08350;108,44439
0,6807;108,85387;0,08404;108,85387
0,6852;109,26673;0,08456;109,26673
0,6914;109,66841;0,08534;109,66841
0,7456;110,06847;0,09342;110,06847
0,7619;110,46876;0,09668;110,46876
0,7696;110,87358;0,09833;110,87358
0,7758;111,28202;0,09967;111,28202
0,7815;111,68836;0,10110;111,68836
0,7871;112,09865;0,10263;112,09865
0,7935;112,50616;0,10483;112,50616
0,8494;112,90621;0,12911;112,90621
1,2758;113,31348;0,67115;113,31348
1,2810;113,72878;0,67524;113,72878
1,2854;114,13186;0,68130;114,13186
1,2895;114,53401;0,68530;114,53401
1,2940;114,94710;0,68926;114,94710
1,2994;115,35100;0,69513;115,35100
1,3088;115,75257;0,70481;115,75257
1,4953;116,01132;1,30570;116,01132
1,5610;116,03622;1,91711;116,03622
1,6117;116,05240;2,53201;116,05240
1,6567;116,06463;3,15179;116,06463
1,6980;116,07417;3,75481;116,07417
1,7393;116,08290;4,36983;116,08290
1,7543;116,08511;4,59292;116,08511
1,7557;116,08546;4,59292;116,08546
