Part protocol
Network name;Part_OP10_MP-002_2020-08-26_10-24-50_0014_OK.csv
Protocol version;2.01.00

Index;Result information;Process values - curve related;Process values - EO related;Evaluation objects settings;Switch signal settings;Device information;Channel-X settings;Channel-Y settings;Cycle control settings;Evaluation settings;Trigger Y settings;Block settings;Measuring curve;Measuring points;Sequence;
Line;10;30;40;70;100;120;150;190;220;240;250;260;270;280;570;



Result information
Date;2020/08/26
Time;10:24:50
Cycle number;14
Total result;OK
Triggered switch signals
Part serial number;0014
Measuring program name;D57-Right
Measuring program number;2
Zero X offset;0,00;mm
Tara Y offset;0,0;kN









Process values - curve related
Block X;116,11;mm;XMIN-X;-0,02;mm
Block Y;4,6;kN;XMIN-Y;0,0;kN
Ref X;-;mm;XMAX-X;116,11;mm
Peak-peak X;116,13;mm;XMAX-Y;4,6;kN
Peak-peak Y;4,6;kN;YMIN-X;0,40;mm
;;;YMIN-Y;0,0;kN
;;;YMAX-X;116,11;mm
;;;YMAX-Y;4,6;kN

Process values - EO related;Result;Entry;Exit;XMIN-X;XMIN-Y;XMAX-X;XMAX-Y;YMIN-Y;YMIN-X;YMAX-Y;YMAX-X
;;;;mm;kN;mm;kN;kN;mm;kN;mm
EO-01;OK;0,7;0,7;;;;;0,7;115,00;0,7;115,13;;;;;;
EO-02;OK;;116,09;116,07;2,3;116,09;3,2;2,3;116,07;;;;;;;;
EO-03;None;
EO-04;None;
























Evaluation objects settings;Reaction;X reference;Y-Reference;XMin;XMax;YMin;YMax;Entry;Exit;Curve part;Catch zone X;Catch zone Y
EO-01;UNI-BOX;ABSOLUTE;-;115,00;115,50;0,4;2,0;LEFT;RIGHT;ANY;+50%;+50%
EO-02;UNI-BOX;ABSOLUTE;-;115,40;117,10;2,3;3,3;ANY;ABOVE;ANY;+50%;+50%
EO-03;OFF
EO-04;OFF

























Switch signal settings;Channel;Threshold at;;Trigger from;Reference;Latch until
Type S1;OFF
Type S2;OFF

















Device information
Device type;maXYmos BL
Device type number;5867B1011
Device serial number;5182443
Firmware version;2.3.2 (r22473-BL_v2.3.x)
-
-
-
-
-
IP Address;10.0.0.18
Network name;OP10
Profibus address;10
-
-
-
Station name;OP10
Company name;
Comment;











Channel-X settings
Use the settings from global setup;True
Sensor-X type;Â±10V
Unit;mm
Used range from;0,00;mm
Used range to;200,00;mm
Decimal places;XXXX.XX
Scaling by;Teach-In
Point 1;0,00;mm;-0,350;%
Point 2;200,00;mm;10,000;%
Invert signal;FALSE
Filter;20 Hz
Test point;0,00;mm
Tolerance;2,00;mm
Enable sensor test by dig-input;FALSE
Zoom from;100,00;mm
Zoom to;120,00;mm























Channel-Y settings
Use the settings from global setup;True
Sensor-Y type;Strain Gage
Unit;kN
Used range from;0,0;kN
Used range to;20,0;kN
Decimal places;XXXXX.X
Scaling by;Teach-In
Point 1;0,0;kN;-0,01562;%
Point 2;20,0;kN;2,00000;%
Invert signal;FALSE
Filter;1 Hz
Piezo reset;-
Test point;0,0;kN
Tolerance;0,1;kN
Enable sensor test by dig-input;FALSE
Zoom from;0,0;kN
Zoom to;5,0;kN












Cycle control settings
Use the settings from global setup;True
Measuring function;Y (X)
Delta-X;Automatic
START condition;Dig-Input
STOP condition;Dig-Input
Cycle time out;20,00;s
Turning point RIGHT;YMAX
Turning point LEFT;NONE
Cut curve at;NONE










Evaluation settings
Capture only first NOK-EO for statistics;False
Hysteresis-X;0,0;%
Hysteresis-Y;100,0;%






Trigger Y settings
Threshold;1,8;kN
Value X at TRIGGER Y;0,00;mm
Approach from;BELOW






Block settings
Value X at block;XMAX
Block at;0,00;mm







Measuring curve
Number of measuring points;287
Ref. Graph on;ABSOLUTE
Curve segments;0;287;286;287;


Time;X(ABSOLUTE);Y;X (ABSOLUTE)


s;mm;kN;mm
0,0000;-0,01976;-0,03633;-0,01976
0,1049;0,39554;-0,03635;0,39554
0,1082;0,81445;-0,03635;0,81445
0,1107;1,24651;-0,03635;1,24651
0,1126;1,65786;-0,03635;1,65786
0,1142;2,08701;-0,03635;2,08701
0,1157;2,51232;-0,03634;2,51232
0,1171;2,91308;-0,03633;2,91308
0,1184;3,33292;-0,03633;3,33292
0,1197;3,76359;-0,03632;3,76359
0,1210;4,19763;-0,03631;4,19763
0,1223;4,62981;-0,03631;4,62981
0,1236;5,05640;-0,03630;5,05640
0,1249;5,47484;-0,03629;5,47484
0,1263;5,88305;-0,03627;5,88305
0,1278;6,33560;-0,03627;6,33560
0,1293;6,77325;-0,03625;6,77325
0,1308;7,19763;-0,03623;7,19763
0,1323;7,61118;-0,03621;7,61118
0,1338;8,01636;-0,03618;8,01636
0,1355;8,46460;-0,03618;8,46460
0,1371;8,90760;-0,03615;8,90760
0,1388;9,34805;-0,03612;9,34805
0,1405;9,78814;-0,03609;9,78814
0,1422;10,22952;-0,03605;10,22952
0,1439;10,67334;-0,03600;10,67334
0,1456;11,12007;-0,03596;11,12007
0,1473;11,56936;-0,03591;11,56936
0,1488;11,97057;-0,03585;11,97057
0,1503;12,37296;-0,03585;12,37296
0,1518;12,77592;-0,03579;12,77592
0,1533;13,17854;-0,03573;13,17854
0,1548;13,58034;-0,03566;13,58034
0,1563;13,98039;-0,03559;13,98039
0,1580;14,42758;-0,03559;14,42758
0,1597;14,87105;-0,03551;14,87105
0,1614;15,31022;-0,03543;15,31022
0,1631;15,74461;-0,03535;15,74461
0,1647;16,17399;-0,03525;16,17399
0,1664;16,59803;-0,03516;16,59803
0,1681;17,01659;-0,03506;17,01659
0,1698;17,42956;-0,03496;17,42956
0,1715;17,83707;-0,03485;17,83707
0,1732;18,23933;-0,03473;18,23933
0,1751;18,68047;-0,03460;18,68047
0,1769;19,11603;-0,03448;19,11603
0,1788;19,54635;-0,03435;19,54635
0,1807;19,97189;-0,03421;19,97189
0,1826;20,39313;-0,03406;20,39313
0,1845;20,81018;-0,03391;20,81018
0,1863;21,22338;-0,03376;21,22338
0,1882;21,63322;-0,03360;21,63322
0,1901;22,04025;-0,03343;22,04025
0,1920;22,44461;-0,03325;22,44461
0,1938;22,84700;-0,03308;22,84700
0,1957;23,24728;-0,03289;23,24728
0,1978;23,68575;-0,03271;23,68575
0,1998;24,12247;-0,03250;24,12247
0,2019;24,55814;-0,03230;24,55814
0,2040;24,99311;-0,03210;24,99311
0,2060;25,42785;-0,03188;25,42785
0,2081;25,86259;-0,03166;25,86259
0,2102;26,29757;-0,03143;26,29757
0,2122;26,73254;-0,03120;26,73254
0,2143;27,16751;-0,03096;27,16751
0,2164;27,60248;-0,03046;27,60248
0,2184;28,03769;-0,03020;28,03769
0,2205;28,47301;-0,02994;28,47301
0,2226;28,90857;-0,02966;28,90857
0,2246;29,34447;-0,02938;29,34447
0,2267;29,78061;-0,02911;29,78061
0,2288;30,21733;-0,02881;30,21733
0,2308;30,65463;-0,02851;30,65463
0,2329;31,09286;-0,02822;31,09286
0,2350;31,53237;-0,02790;31,53237
0,2368;31,93278;-0,02759;31,93278
0,2387;32,33423;-0,02726;32,33423
0,2406;32,73673;-0,02694;32,73673
0,2425;33,14027;-0,02661;33,14027
0,2443;33,54498;-0,02626;33,54498
0,2462;33,95062;-0,02592;33,95062
0,2481;34,35731;-0,02557;34,35731
0,2500;34,76505;-0,02521;34,76505
0,2519;35,17372;-0,02485;35,17372
0,2537;35,58343;-0,02448;35,58343
0,2556;35,99396;-0,02410;35,99396
0,2575;36,40542;-0,02372;36,40542
0,2594;36,81781;-0,02333;36,81781
0,2612;37,23102;-0,02293;37,23102
0,2631;37,64516;-0,02253;37,64516
0,2650;38,06011;-0,02213;38,06011
0,2669;38,47588;-0,02172;38,47588
0,2688;38,89235;-0,02130;38,89235
0,2706;39,30928;-0,02088;39,30928
0,2725;39,72656;-0,02045;39,72656
0,2744;40,14396;-0,02002;40,14396
0,2763;40,56089;-0,01957;40,56089
0,2781;40,97735;-0,01913;40,97735
0,2800;41,39289;-0,01867;41,39289
0,2819;41,80749;-0,01822;41,80749
0,2838;42,22082;-0,01776;42,22082
0,2856;42,63298;-0,01729;42,63298
0,2875;43,04385;-0,01682;43,04385
0,2894;43,45334;-0,01635;43,45334
0,2913;43,86131;-0,01587;43,86131
0,2932;44,26753;-0,01538;44,26753
0,2950;44,67189;-0,01489;44,67189
0,2969;45,07439;-0,01440;45,07439
0,2988;45,47502;-0,01390;45,47502
0,3009;45,91349;-0,01289;45,91349
0,3029;46,34963;-0,01237;46,34963
0,3050;46,78332;-0,01185;46,78332
0,3070;47,21445;-0,01133;47,21445
0,3091;47,64267;-0,01081;47,64267
0,3112;48,06775;-0,01028;48,06775
0,3132;48,48957;-0,00975;48,48957
0,3153;48,90837;-0,00921;48,90837
0,3174;49,32402;-0,00867;49,32402
0,3194;49,73676;-0,00812;49,73676
0,3215;50,14671;-0,00703;50,14671
0,3236;50,55375;-0,00647;50,55375
0,3256;50,95811;-0,00592;50,95811
0,3277;51,35979;-0,00535;51,35979
0,3300;51,79535;-0,00480;51,79535
0,3322;52,22822;-0,00423;52,22822
0,3345;52,65866;-0,00366;52,65866
0,3367;53,08676;-0,00252;53,08676
0,3390;53,51242;-0,00194;53,51242
0,3412;53,93587;-0,00136;53,93587
0,3435;54,35676;-0,00078;54,35676
0,3457;54,77567;-0,00020;54,77567
0,3480;55,19272;0,00097;55,19272
0,3502;55,60814;0,00156;55,60814
0,3525;56,02239;0,00215;56,02239
0,3547;56,43560;0,00274;56,43560
0,3570;56,84788;0,00333;56,84788
0,3592;57,25934;0,00452;57,25934
0,3615;57,67010;0,00513;57,67010
0,3637;58,08028;0,00572;58,08028
0,3660;58,49000;0,00632;58,49000
0,3683;58,89948;0,00692;58,89948
0,3705;59,30884;0,00813;59,30884
0,3728;59,71809;0,00873;59,71809
0,3750;60,12746;0,00933;60,12746
0,3773;60,53683;0,00994;60,53683
0,3795;60,94642;0,01054;60,94642
0,3818;61,35602;0,01175;61,35602
0,3840;61,76585;0,01236;61,76585
0,3863;62,17580;0,01297;62,17580
0,3885;62,58587;0,01357;62,58587
0,3908;62,99581;0,01418;62,99581
0,3930;63,40541;0,01539;63,40541
0,3953;63,81466;0,01599;63,81466
0,3975;64,22333;0,01660;64,22333
0,3998;64,63153;0,01721;64,63153
0,4020;65,03915;0,01781;65,03915
0,4043;65,44607;0,01902;65,44607
0,4066;65,85206;0,01962;65,85206
0,4088;66,25736;0,02022;66,25736
0,4111;66,66195;0,02083;66,66195
0,4133;67,06608;0,02144;67,06608
0,4156;67,46986;0,02263;67,46986
0,4178;67,87340;0,02323;67,87340
0,4201;68,27660;0,02382;68,27660
0,4223;68,67910;0,02443;68,67910
0,4246;69,08078;0,02502;69,08078
0,4268;69,48142;0,02621;69,48142
0,4293;69,91441;0,02680;69,91441
0,4317;70,34601;0,02739;70,34601
0,4342;70,77644;0,02856;70,77644
0,4366;71,20560;0,02916;71,20560
0,4390;71,63324;0,02974;71,63324
0,4415;72,05925;0,03032;72,05925
0,4439;72,48305;0,03148;72,48305
0,4464;72,90463;0,03205;72,90463
0,4488;73,32413;0,03263;73,32413
0,4512;73,74152;0,03378;73,74152
0,4537;74,15706;0,03434;74,15706
0,4561;74,57085;0,03491;74,57085
0,4586;74,98312;0,03604;74,98312
0,4610;75,39400;0,03660;75,39400
0,4634;75,80383;0,03716;75,80383
0,4659;76,21273;0,03772;76,21273
0,4683;76,62059;0,03882;76,62059
0,4708;77,02751;0,03937;77,02751
0,4732;77,43350;0,03991;77,43350
0,4756;77,83844;0,04101;77,83844
0,4781;78,24199;0,04154;78,24199
0,4805;78,64414;0,04208;78,64414
0,4830;79,04454;0,04314;79,04454
0,4856;79,47381;0,04367;79,47381
0,4882;79,90110;0,04420;79,90110
0,4908;80,32641;0,04525;80,32641
0,4935;80,74940;0,04576;80,74940
0,4961;81,17017;0,04679;81,17017
0,4987;81,58920;0,04730;81,58920
0,5014;82,00694;0,04781;82,00694
0,5040;82,42364;0,04882;82,42364
0,5066;82,83988;0,04932;82,83988
0,5092;83,25576;0,05031;83,25576
0,5119;83,67141;0,05080;83,67141
0,5145;84,08683;0,05128;84,08683
0,5171;84,50178;0,05225;84,50178
0,5198;84,91615;0,05273;84,91615
0,5224;85,33006;0,05368;85,33006
0,5250;85,74385;0,05415;85,74385
0,5276;86,15740;0,05461;86,15740
0,5303;86,57084;0,05554;86,57084
0,5329;86,98370;0,05600;86,98370
0,5355;87,39598;0,05691;87,39598
0,5382;87,80732;0,05736;87,80732
0,5408;88,21785;0,05781;88,21785
0,5434;88,62757;0,05870;88,62757
0,5460;89,03635;0,05913;89,03635
0,5487;89,44409;0,06000;89,44409
0,5513;89,85078;0,06043;89,85078
0,5539;90,25653;0,06085;90,25653
0,5566;90,66148;0,06169;90,66148
0,5592;91,06595;0,06212;91,06595
0,5618;91,46973;0,06294;91,46973
0,5644;91,87293;0,06335;91,87293
0,5671;92,27554;0,06376;92,27554
0,5697;92,67758;0,06456;92,67758
0,5723;93,07903;0,06496;93,07903
0,5750;93,47931;0,06575;93,47931
0,5778;93,90649;0,06615;93,90649
0,5806;94,33169;0,06692;94,33169
0,5834;94,75467;0,06730;94,75467
0,5862;95,17567;0,06805;95,17567
0,5890;95,59482;0,06842;95,59482
0,5919;96,01222;0,06917;96,01222
0,5947;96,42775;0,06954;96,42775
0,5975;96,84177;0,07026;96,84177
0,6003;97,25475;0,07061;97,25475
0,6031;97,66679;0,07132;97,66679
0,6059;98,07778;0,07167;98,07778
0,6087;98,48773;0,07236;98,48773
0,6116;98,89663;0,07270;98,89663
0,6144;99,30425;0,07339;99,30425
0,6172;99,71036;0,07372;99,71036
0,6200;100,11530;0,07438;100,11530
0,6228;100,51920;0,07471;100,51920
0,6256;100,92286;0,07536;100,92286
0,6285;101,32617;0,07567;101,32617
0,6313;101,72914;0,07631;101,72914
0,6341;102,13175;0,07663;102,13175
0,6369;102,53425;0,07725;102,53425
0,6397;102,93652;0,07755;102,93652
0,6425;103,33890;0,07816;103,33890
0,6454;103,74163;0,07846;103,74163
0,6482;104,14471;0,07905;104,14471
0,6510;104,54861;0,07935;104,54861
0,6538;104,95332;0,07993;104,95332
0,6566;105,35861;0,08022;105,35861
0,6594;105,76390;0,08078;105,76390
0,6623;106,16838;0,08107;106,16838
0,6651;106,57099;0,08162;106,57099
0,6681;106,99549;0,08190;106,99549
0,6711;107,41033;0,08245;107,41033
0,6741;107,81108;0,08272;107,81108
0,6773;108,21660;0,08325;108,21660
0,6808;108,63691;0,08378;108,63691
0,6848;109,04697;0,08431;109,04697
0,6897;109,45227;0,08510;109,45227
0,6981;109,85314;0,08612;109,85314
0,7604;110,25622;0,09577;110,25622
0,7700;110,66663;0,09773;110,66663
0,7764;111,07646;0,09946;111,07646
0,7817;111,47698;0,10086;111,47698
0,7865;111,87855;0,10185;111,87855
0,7914;112,28023;0,10341;112,28023
0,7972;112,68110;0,10508;112,68110
1,0616;113,08115;0,36587;113,08115
1,2809;113,49320;0,66638;113,49320
1,2859;113,90606;0,67033;113,90606
1,2902;114,31472;0,67616;114,31472
1,2944;114,71827;0,67999;114,71827
1,2989;115,13415;0,68379;115,13415
1,3045;115,54038;0,68940;115,54038
1,3415;115,94066;0,72683;115,94066
1,5061;116,04088;1,33407;116,04088
1,5700;116,06346;1,94470;116,06346
1,6188;116,07394;2,54512;116,07394
1,6639;116,09023;3,17091;116,09023
1,7052;116,09500;3,77901;116,09500
1,7465;116,10397;4,39816;116,10397
1,7596;116,10583;4,59451;116,10583
