Part protocol
Network name;Part_OP10_MP-002_2020-08-26_15-45-57_0030_OK.csv
Protocol version;2.01.00

Index;Result information;Process values - curve related;Process values - EO related;Evaluation objects settings;Switch signal settings;Device information;Channel-X settings;Channel-Y settings;Cycle control settings;Evaluation settings;Trigger Y settings;Block settings;Measuring curve;Measuring points;Sequence;
Line;10;30;40;70;100;120;150;190;220;240;250;260;270;280;570;



Result information
Date;2020/08/26
Time;15:45:57
Cycle number;30
Total result;OK
Triggered switch signals
Part serial number;0030
Measuring program name;D57-Right
Measuring program number;2
Zero X offset;0,00;mm
Tara Y offset;0,0;kN









Process values - curve related
Block X;116,14;mm;XMIN-X;-0,03;mm
Block Y;4,8;kN;XMIN-Y;0,0;kN
Ref X;-;mm;XMAX-X;116,14;mm
Peak-peak X;116,17;mm;XMAX-Y;4,8;kN
Peak-peak Y;4,8;kN;YMIN-X;0,39;mm
;;;YMIN-Y;0,0;kN
;;;YMAX-X;116,14;mm
;;;YMAX-Y;4,8;kN

Process values - EO related;Result;Entry;Exit;XMIN-X;XMIN-Y;XMAX-X;XMAX-Y;YMIN-Y;YMIN-X;YMAX-Y;YMAX-X
;;;;mm;kN;mm;kN;kN;mm;kN;mm
EO-01;OK;0,7;0,7;;;;;0,7;115,00;0,7;115,13;;;;;;
EO-02;OK;;116,12;116,10;2,3;116,12;3,1;2,3;116,10;;;;;;;;
EO-03;None;
EO-04;None;
























Evaluation objects settings;Reaction;X reference;Y-Reference;XMin;XMax;YMin;YMax;Entry;Exit;Curve part;Catch zone X;Catch zone Y
EO-01;UNI-BOX;ABSOLUTE;-;115,00;115,50;0,4;2,0;LEFT;RIGHT;ANY;+50%;+50%
EO-02;UNI-BOX;ABSOLUTE;-;115,40;117,10;2,3;3,3;ANY;ABOVE;ANY;+50%;+50%
EO-03;OFF
EO-04;OFF

























Switch signal settings;Channel;Threshold at;;Trigger from;Reference;Latch until
Type S1;OFF
Type S2;OFF

















Device information
Device type;maXYmos BL
Device type number;5867B1011
Device serial number;5182443
Firmware version;2.3.2 (r22473-BL_v2.3.x)
-
-
-
-
-
IP Address;10.0.0.18
Network name;OP10
Profibus address;10
-
-
-
Station name;OP10
Company name;
Comment;











Channel-X settings
Use the settings from global setup;True
Sensor-X type;Â±10V
Unit;mm
Used range from;0,00;mm
Used range to;200,00;mm
Decimal places;XXXX.XX
Scaling by;Teach-In
Point 1;0,00;mm;-0,350;%
Point 2;200,00;mm;10,000;%
Invert signal;FALSE
Filter;20 Hz
Test point;0,00;mm
Tolerance;2,00;mm
Enable sensor test by dig-input;FALSE
Zoom from;100,00;mm
Zoom to;120,00;mm























Channel-Y settings
Use the settings from global setup;True
Sensor-Y type;Strain Gage
Unit;kN
Used range from;0,0;kN
Used range to;20,0;kN
Decimal places;XXXXX.X
Scaling by;Teach-In
Point 1;0,0;kN;-0,01562;%
Point 2;20,0;kN;2,00000;%
Invert signal;FALSE
Filter;1 Hz
Piezo reset;-
Test point;0,0;kN
Tolerance;0,1;kN
Enable sensor test by dig-input;FALSE
Zoom from;0,0;kN
Zoom to;5,0;kN












Cycle control settings
Use the settings from global setup;True
Measuring function;Y (X)
Delta-X;Automatic
START condition;Dig-Input
STOP condition;Dig-Input
Cycle time out;20,00;s
Turning point RIGHT;YMAX
Turning point LEFT;NONE
Cut curve at;NONE










Evaluation settings
Capture only first NOK-EO for statistics;False
Hysteresis-X;0,0;%
Hysteresis-Y;100,0;%






Trigger Y settings
Threshold;1,8;kN
Value X at TRIGGER Y;0,00;mm
Approach from;BELOW






Block settings
Value X at block;XMAX
Block at;0,00;mm







Measuring curve
Number of measuring points;287
Ref. Graph on;ABSOLUTE
Curve segments;0;286;285;287;


Time;X(ABSOLUTE);Y;X (ABSOLUTE)


s;mm;kN;mm
0,0000;-0,03128;-0,03514;-0,03128
0,0915;0,38576;-0,03524;0,38576
0,0949;0,79501;-0,03524;0,79501
0,0973;1,21241;-0,03524;1,21241
0,0994;1,65006;-0,03524;1,65006
0,1011;2,06629;-0,03523;2,06629
0,1026;2,47834;-0,03523;2,47834
0,1041;2,92425;-0,03523;2,92425
0,1054;3,33443;-0,03522;3,33443
0,1067;3,75555;-0,03522;3,75555
0,1080;4,18075;-0,03522;4,18075
0,1093;4,60478;-0,03522;4,60478
0,1106;5,02381;-0,03520;5,02381
0,1119;5,43492;-0,03520;5,43492
0,1133;5,83625;-0,03519;5,83625
0,1148;6,28101;-0,03518;6,28101
0,1163;6,71039;-0,03516;6,71039
0,1178;7,12581;-0,03516;7,12581
0,1193;7,52924;-0,03514;7,52924
0,1210;7,97178;-0,03512;7,97178
0,1226;8,40501;-0,03510;8,40501
0,1243;8,83206;-0,03507;8,83206
0,1260;9,25598;-0,03504;9,25598
0,1277;9,67931;-0,03500;9,67931
0,1294;10,10369;-0,03497;10,10369
0,1311;10,53040;-0,03493;10,53040
0,1328;10,96025;-0,03493;10,96025
0,1345;11,39325;-0,03488;11,39325
0,1362;11,82915;-0,03484;11,82915
0,1378;12,26738;-0,03478;12,26738
0,1395;12,70701;-0,03473;12,70701
0,1412;13,14734;-0,03467;13,14734
0,1429;13,58697;-0,03460;13,58697
0,1446;14,02520;-0,03453;14,02520
0,1463;14,46087;-0,03446;14,46087
0,1480;14,89352;-0,03438;14,89352
0,1497;15,32267;-0,03438;15,32267
0,1514;15,74787;-0,03430;15,74787
0,1531;16,16911;-0,03422;16,16911
0,1547;16,58592;-0,03412;16,58592
0,1564;16,99843;-0,03402;16,99843
0,1581;17,40675;-0,03392;17,40675
0,1598;17,81111;-0,03381;17,81111
0,1615;18,21175;-0,03370;18,21175
0,1634;18,65324;-0,03358;18,65324
0,1653;19,09112;-0,03346;19,09112
0,1671;19,52574;-0,03333;19,52574
0,1690;19,95757;-0,03319;19,95757
0,1709;20,38684;-0,03305;20,38684
0,1728;20,81402;-0,03290;20,81402
0,1746;21,23933;-0,03275;21,23933
0,1765;21,66348;-0,03259;21,66348
0,1784;22,08658;-0,03243;22,08658
0,1803;22,50910;-0,03225;22,50910
0,1822;22,93092;-0,03208;22,93092
0,1840;23,35204;-0,03190;23,35204
0,1859;23,77258;-0,03171;23,77258
0,1878;24,19254;-0,03151;24,19254
0,1897;24,61238;-0,03131;24,61238
0,1915;25,03210;-0,03111;25,03210
0,1934;25,45218;-0,03089;25,45218
0,1953;25,87237;-0,03067;25,87237
0,1972;26,29268;-0,03045;26,29268
0,1991;26,71298;-0,03022;26,71298
0,2009;27,13329;-0,02998;27,13329
0,2028;27,55360;-0,02973;27,55360
0,2047;27,97391;-0,02948;27,97391
0,2066;28,39410;-0,02922;28,39410
0,2084;28,81417;-0,02896;28,81417
0,2103;29,23401;-0,02869;29,23401
0,2122;29,65350;-0,02841;29,65350
0,2141;30,07253;-0,02812;30,07253
0,2159;30,49109;-0,02784;30,49109
0,2178;30,90930;-0,02754;30,90930
0,2197;31,32728;-0,02724;31,32728
0,2216;31,74515;-0,02693;31,74515
0,2235;32,16278;-0,02661;32,16278
0,2253;32,58017;-0,02629;32,58017
0,2272;32,99734;-0,02596;32,99734
0,2291;33,41427;-0,02563;33,41427
0,2310;33,83062;-0,02528;33,83062
0,2328;34,24650;-0,02494;34,24650
0,2347;34,66169;-0,02459;34,66169
0,2366;35,07594;-0,02423;35,07594
0,2385;35,48938;-0,02386;35,48938
0,2404;35,90178;-0,02349;35,90178
0,2422;36,31324;-0,02312;36,31324
0,2441;36,72388;-0,02273;36,72388
0,2460;37,13360;-0,02234;37,13360
0,2479;37,54227;-0,02195;37,54227
0,2497;37,94977;-0,02154;37,94977
0,2516;38,35611;-0,02114;38,35611
0,2535;38,76105;-0,02073;38,76105
0,2554;39,16483;-0,02031;39,16483
0,2573;39,56745;-0,01989;39,56745
0,2591;39,96901;-0,01946;39,96901
0,2610;40,36942;-0,01903;40,36942
0,2631;40,80870;-0,01858;40,80870
0,2651;41,24646;-0,01814;41,24646
0,2672;41,68272;-0,01769;41,68272
0,2693;42,11722;-0,01723;42,11722
0,2713;42,54987;-0,01678;42,54987
0,2734;42,98065;-0,01631;42,98065
0,2755;43,40969;-0,01584;43,40969
0,2775;43,83710;-0,01489;43,83710
0,2796;44,26276;-0,01441;44,26276
0,2817;44,68667;-0,01392;44,68667
0,2837;45,10873;-0,01342;45,10873
0,2858;45,52892;-0,01293;45,52892
0,2879;45,94713;-0,01243;45,94713
0,2899;46,36313;-0,01192;46,36313
0,2920;46,77715;-0,01141;46,77715
0,2940;47,18919;-0,01089;47,18919
0,2961;47,59914;-0,01038;47,59914
0,2982;48,00723;-0,00933;48,00723
0,3002;48,41380;-0,00880;48,41380
0,3023;48,81874;-0,00827;48,81874
0,3044;49,22252;-0,00773;49,22252
0,3064;49,62502;-0,00720;49,62502
0,3085;50,02635;-0,00665;50,02635
0,3106;50,42641;-0,00610;50,42641
0,3128;50,86150;-0,00556;50,86150
0,3151;51,29531;-0,00446;51,29531
0,3173;51,72784;-0,00389;51,72784
0,3196;52,15932;-0,00333;52,15932
0,3218;52,59010;-0,00277;52,59010
0,3241;53,02018;-0,00221;53,02018
0,3263;53,44980;-0,00107;53,44980
0,3286;53,87919;-0,00049;53,87919
0,3308;54,30823;0,00008;54,30823
0,3331;54,73703;0,00065;54,73703
0,3354;55,16583;0,00123;55,16583
0,3376;55,59464;0,00240;55,59464
0,3399;56,02333;0,00298;56,02333
0,3421;56,45178;0,00356;56,45178
0,3444;56,87977;0,00415;56,87977
0,3466;57,30718;0,00474;57,30718
0,3489;57,73412;0,00592;57,73412
0,3511;58,16059;0,00651;58,16059
0,3534;58,58684;0,00711;58,58684
0,3556;59,01285;0,00770;59,01285
0,3579;59,43851;0,00830;59,43851
0,3601;59,86382;0,00950;59,86382
0,3624;60,28867;0,01009;60,28867
0,3646;60,71282;0,01069;60,71282
0,3669;61,13627;0,01129;61,13627
0,3691;61,55890;0,01189;61,55890
0,3714;61,98049;0,01309;61,98049
0,3737;62,40091;0,01369;62,40091
0,3759;62,81982;0,01429;62,81982
0,3782;63,23710;0,01489;63,23710
0,3804;63,65299;0,01549;63,65299
0,3827;64,06759;0,01670;64,06759
0,3849;64,48092;0,01730;64,48092
0,3872;64,89296;0,01790;64,89296
0,3894;65,30372;0,01849;65,30372
0,3917;65,71309;0,01909;65,71309
0,3939;66,12106;0,02030;66,12106
0,3962;66,52740;0,02089;66,52740
0,3984;66,93234;0,02149;66,93234
0,4007;67,33600;0,02208;67,33600
0,4029;67,73862;0,02268;67,73862
0,4052;68,14007;0,02387;68,14007
0,4074;68,54012;0,02446;68,54012
0,4099;68,97183;0,02506;68,97183
0,4123;69,40180;0,02564;69,40180
0,4148;69,83037;0,02681;69,83037
0,4172;70,25755;0,02741;70,25755
0,4196;70,68344;0,02799;70,68344
0,4221;71,10794;0,02916;71,10794
0,4245;71,53104;0,02974;71,53104
0,4270;71,95251;0,03031;71,95251
0,4294;72,37235;0,03089;72,37235
0,4319;72,79091;0,03204;72,79091
0,4343;73,20831;0,03261;73,20831
0,4367;73,62466;0,03318;73,62466
0,4392;74,04008;0,03431;74,04008
0,4416;74,45445;0,03488;74,45445
0,4441;74,86754;0,03544;74,86754
0,4465;75,27912;0,03656;75,27912
0,4489;75,68907;0,03712;75,68907
0,4514;76,09727;0,03766;76,09727
0,4538;76,50419;0,03822;76,50419
0,4563;76,90972;0,03931;76,90972
0,4587;77,31408;0,03986;77,31408
0,4611;77,71727;0,04039;77,71727
0,4636;78,11931;0,04148;78,11931
0,4660;78,52029;0,04201;78,52029
0,4685;78,92046;0,04254;78,92046
0,4711;79,35043;0,04360;79,35043
0,4737;79,77958;0,04412;79,77958
0,4763;80,20815;0,04464;80,20815
0,4790;80,63603;0,04567;80,63603
0,4816;81,06320;0,04619;81,06320
0,4842;81,48910;0,04721;81,48910
0,4869;81,91371;0,04772;81,91371
0,4895;82,33693;0,04822;82,33693
0,4921;82,75898;0,04922;82,75898
0,4947;83,17987;0,04971;83,17987
0,4974;83,59948;0,05069;83,59948
0,5000;84,01816;0,05117;84,01816
0,5026;84,43590;0,05166;84,43590
0,5053;84,85283;0,05261;84,85283
0,5079;85,26930;0,05309;85,26930
0,5105;85,68553;0,05403;85,68553
0,5131;86,10153;0,05449;86,10153
0,5158;86,51707;0,05496;86,51707
0,5184;86,93156;0,05588;86,93156
0,5210;87,34488;0,05633;87,34488
0,5237;87,75715;0,05723;87,75715
0,5263;88,16862;0,05768;88,16862
0,5289;88,57949;0,05812;88,57949
0,5315;88,98991;0,05900;88,98991
0,5342;89,39974;0,05944;89,39974
0,5368;89,80876;0,06030;89,80876
0,5394;90,21661;0,06072;90,21661
0,5421;90,62318;0,06115;90,62318
0,5447;91,02859;0,06198;91,02859
0,5473;91,43283;0,06240;91,43283
0,5499;91,83603;0,06322;91,83603
0,5526;92,23795;0,06363;92,23795
0,5552;92,63870;0,06403;92,63870
0,5580;93,06646;0,06482;93,06646
0,5608;93,49235;0,06522;93,49235
0,5636;93,91627;0,06600;93,91627
0,5665;94,33832;0,06639;94,33832
0,5693;94,75863;0,06716;94,75863
0,5721;95,17742;0,06754;95,17742
0,5749;95,59505;0,06829;95,59505
0,5777;96,01187;0,06866;96,01187
0,5805;96,42810;0,06939;96,42810
0,5834;96,84387;0,06975;96,84387
0,5862;97,25940;0,07047;97,25940
0,5890;97,67459;0,07082;97,67459
0,5918;98,08931;0,07153;98,08931
0,5946;98,50310;0,07187;98,50310
0,5974;98,91607;0,07256;98,91607
0,6003;99,32811;0,07290;99,32811
0,6031;99,73923;0,07357;99,73923
0,6059;100,14941;0,07390;100,14941
0,6087;100,55866;0,07456;100,55866
0,6115;100,96686;0,07489;100,96686
0,6143;101,37390;0,07552;101,37390
0,6172;101,77977;0,07585;101,77977
0,6200;102,18413;0,07648;102,18413
0,6228;102,58709;0,07678;102,58709
0,6256;102,98878;0,07740;102,98878
0,6284;103,38953;0,07771;103,38953
0,6312;103,78982;0,07831;103,78982
0,6340;104,19010;0,07861;104,19010
0,6369;104,59086;0,07920;104,59086
0,6397;104,99208;0,07949;104,99208
0,6425;105,39388;0,08006;105,39388
0,6453;105,79579;0,08035;105,79579
0,6481;106,19783;0,08091;106,19783
0,6509;106,59893;0,08119;106,59893
0,6539;107,02273;0,08175;107,02273
0,6570;107,43791;0,08229;107,43791
0,6600;107,84006;0,08256;107,84006
0,6631;108,24838;0,08310;108,24838
0,6665;108,65204;0,08362;108,65204
0,6703;109,05419;0,08415;109,05419
0,6748;109,45529;0,08467;109,45529
0,6814;109,85698;0,08570;109,85698
0,7362;110,25982;0,09379;110,25982
0,7495;110,66826;0,09631;110,66826
0,7565;111,07681;0,09791;111,07681
0,7619;111,48641;0,09921;111,48641
0,7666;111,88739;0,10013;111,88739
0,7711;112,28826;0,10108;112,28826
0,7764;112,69786;0,10260;112,69786
0,7869;113,09873;0,10596;113,09873
1,2607;113,51042;0,67616;113,51042
1,2654;113,91513;0,68243;113,91513
1,2694;114,32543;0,68656;114,32543
1,2731;114,73037;0,69065;114,73037
1,2771;115,13066;0,69469;115,13066
1,2821;115,53945;0,70068;115,53945
1,2960;115,93962;0,71444;115,93962
1,4772;116,06975;1,32359;116,06975
1,5410;116,09163;1,93343;116,09163
1,5898;116,10513;2,53843;116,10513
1,6330;116,11782;3,14419;116,11782
1,6743;116,12748;3,75963;116,12748
1,7156;116,13435;4,38768;116,13435
1,7419;116,13982;4,78521;116,13982
1,7436;116,14017;4,78521;116,14017
