Part protocol
Network name;Part_OP10_MP-001_2020-08-26_16-01-05_0034_OK.csv
Protocol version;2.01.00

Index;Result information;Process values - curve related;Process values - EO related;Evaluation objects settings;Switch signal settings;Device information;Channel-X settings;Channel-Y settings;Cycle control settings;Evaluation settings;Trigger Y settings;Block settings;Measuring curve;Measuring points;Sequence;
Line;10;30;40;70;100;120;150;190;220;240;250;260;270;280;600;



Result information
Date;2020/08/26
Time;16:01:05
Cycle number;34
Total result;OK
Triggered switch signals
Part serial number;0034
Measuring program name;D57-Left
Measuring program number;1
Zero X offset;0,00;mm
Tara Y offset;0,0;kN









Process values - curve related
Block X;126,31;mm;XMIN-X;-0,20;mm
Block Y;7,5;kN;XMIN-Y;0,0;kN
Ref X;-;mm;XMAX-X;126,31;mm
Peak-peak X;126,51;mm;XMAX-Y;7,5;kN
Peak-peak Y;7,6;kN;YMIN-X;-0,20;mm
;;;YMIN-Y;0,0;kN
;;;YMAX-X;126,31;mm
;;;YMAX-Y;7,5;kN

Process values - EO related;Result;Entry;Exit;XMIN-X;XMIN-Y;XMAX-X;XMAX-Y;YMIN-Y;YMIN-X;YMAX-Y;YMAX-X
;;;;mm;kN;mm;kN;kN;mm;kN;mm
EO-01;OK;0,8;0,8;;;;;0,8;124,50;0,8;125,43;;;;;;
EO-02;OK;126,27;126,28;126,27;4,5;126,28;5,0;;;;;;;;;;
EO-03;None;
EO-04;None;
























Evaluation objects settings;Reaction;X reference;Y-Reference;XMin;XMax;YMin;YMax;Entry;Exit;Curve part;Catch zone X;Catch zone Y
EO-01;UNI-BOX;ABSOLUTE;-;124,50;125,70;0,5;3,0;LEFT;RIGHT;ANY;+50%;+50%
EO-02;UNI-BOX;ABSOLUTE;-;125,80;127,20;4,5;5,5;BELOW;ABOVE;ANY;+50%;+50%
EO-03;OFF
EO-04;OFF

























Switch signal settings;Channel;Threshold at;;Trigger from;Reference;Latch until
Type S1;OFF
Type S2;OFF

















Device information
Device type;maXYmos BL
Device type number;5867B1011
Device serial number;5182443
Firmware version;2.3.2 (r22473-BL_v2.3.x)
-
-
-
-
-
IP Address;10.0.0.18
Network name;OP10
Profibus address;10
-
-
-
Station name;OP10
Company name;
Comment;











Channel-X settings
Use the settings from global setup;True
Sensor-X type;Â±10V
Unit;mm
Used range from;0,00;mm
Used range to;200,00;mm
Decimal places;XXXX.XX
Scaling by;Teach-In
Point 1;0,00;mm;-0,350;%
Point 2;200,00;mm;10,000;%
Invert signal;FALSE
Filter;20 Hz
Test point;0,00;mm
Tolerance;2,00;mm
Enable sensor test by dig-input;FALSE
Zoom from;110,00;mm
Zoom to;133,11;mm























Channel-Y settings
Use the settings from global setup;True
Sensor-Y type;Strain Gage
Unit;kN
Used range from;0,0;kN
Used range to;20,0;kN
Decimal places;XXXXX.X
Scaling by;Teach-In
Point 1;0,0;kN;-0,01562;%
Point 2;20,0;kN;2,00000;%
Invert signal;FALSE
Filter;1 Hz
Piezo reset;-
Test point;0,0;kN
Tolerance;0,1;kN
Enable sensor test by dig-input;FALSE
Zoom from;0,0;kN
Zoom to;6,0;kN












Cycle control settings
Use the settings from global setup;True
Measuring function;Y (X)
Delta-X;Automatic
START condition;Dig-Input
STOP condition;Dig-Input
Cycle time out;20,00;s
Turning point RIGHT;YMAX
Turning point LEFT;NONE
Cut curve at;NONE










Evaluation settings
Capture only first NOK-EO for statistics;False
Hysteresis-X;0,0;%
Hysteresis-Y;100,0;%






Trigger Y settings
Threshold;1,9;kN
Value X at TRIGGER Y;0,00;mm
Approach from;BELOW






Block settings
Value X at block;XMAX
Block at;0,00;mm







Measuring curve
Number of measuring points;316
Ref. Graph on;ABSOLUTE
Curve segments;0;316;315;316;


Time;X(ABSOLUTE);Y;X (ABSOLUTE)


s;mm;kN;mm
0,0000;-0,19657;-0,03451;-0,19657
0,0993;0,21792;-0,03449;0,21792
0,1032;0,63380;-0,03449;0,63380
0,1060;1,04922;-0,03449;1,04922
0,1083;1,45545;-0,03449;1,45545
0,1103;1,88588;-0,03449;1,88588
0,1122;2,32528;-0,03449;2,32528
0,1139;2,75990;-0,03448;2,75990
0,1154;3,17695;-0,03448;3,17695
0,1169;3,62251;-0,03448;3,62251
0,1182;4,03537;-0,03448;4,03537
0,1195;4,46976;-0,03448;4,46976
0,1209;4,92487;-0,03448;4,92487
0,1220;5,32970;-0,03448;5,32970
0,1231;5,74500;-0,03448;5,74500
0,1242;6,16670;-0,03447;6,16670
0,1254;6,58969;-0,03447;6,58969
0,1265;7,00918;-0,03447;7,00918
0,1276;7,42087;-0,03446;7,42087
0,1287;7,82174;-0,03446;7,82174
0,1301;8,27359;-0,03445;8,27359
0,1314;8,70705;-0,03444;8,70705
0,1327;9,12212;-0,03443;9,12212
0,1342;9,57374;-0,03443;9,57374
0,1357;10,00138;-0,03442;10,00138
0,1372;10,40632;-0,03441;10,40632
0,1389;10,83932;-0,03439;10,83932
0,1406;11,25497;-0,03437;11,25497
0,1423;11,66038;-0,03436;11,66038
0,1440;12,06043;-0,03435;12,06043
0,1458;12,50204;-0,03432;12,50204
0,1477;12,94353;-0,03430;12,94353
0,1496;13,38817;-0,03428;13,38817
0,1513;13,79369;-0,03428;13,79369
0,1530;14,20550;-0,03425;14,20550
0,1547;14,62290;-0,03423;14,62290
0,1563;15,04472;-0,03420;15,04472
0,1580;15,47026;-0,03417;15,47026
0,1597;15,89942;-0,03413;15,89942
0,1614;16,33241;-0,03410;16,33241
0,1631;16,76878;-0,03406;16,76878
0,1648;17,20748;-0,03402;17,20748
0,1665;17,64757;-0,03398;17,64757
0,1682;18,08918;-0,03398;18,08918
0,1699;18,53288;-0,03394;18,53288
0,1715;18,97856;-0,03389;18,97856
0,1732;19,42576;-0,03385;19,42576
0,1749;19,87377;-0,03379;19,87377
0,1766;20,32224;-0,03374;20,32224
0,1783;20,77188;-0,03369;20,77188
0,1798;21,17298;-0,03363;21,17298
0,1813;21,57572;-0,03363;21,57572
0,1828;21,97961;-0,03357;21,97961
0,1843;22,38386;-0,03350;22,38386
0,1858;22,78787;-0,03344;22,78787
0,1873;23,19176;-0,03337;23,19176
0,1888;23,59566;-0,03337;23,59566
0,1903;24,00002;-0,03331;24,00002
0,1918;24,40473;-0,03323;24,40473
0,1933;24,80932;-0,03316;24,80932
0,1948;25,21333;-0,03309;25,21333
0,1963;25,61676;-0,03309;25,61676
0,1978;26,01961;-0,03300;26,01961
0,1993;26,42258;-0,03292;26,42258
0,2008;26,82554;-0,03284;26,82554
0,2023;27,22839;-0,03275;27,22839
0,2038;27,63054;-0,03275;27,63054
0,2053;28,03152;-0,03266;28,03152
0,2070;28,48070;-0,03258;28,48070
0,2087;28,92836;-0,03248;28,92836
0,2104;29,37439;-0,03238;29,37439
0,2121;29,81879;-0,03229;29,81879
0,2138;30,26098;-0,03219;30,26098
0,2155;30,70061;-0,03209;30,70061
0,2172;31,13767;-0,03199;31,13767
0,2189;31,57230;-0,03199;31,57230
0,2205;32,00471;-0,03187;32,00471
0,2222;32,43468;-0,03177;32,43468
0,2239;32,86232;-0,03166;32,86232
0,2256;33,28751;-0,03154;33,28751
0,2273;33,71038;-0,03143;33,71038
0,2290;34,13092;-0,03131;34,13092
0,2307;34,54960;-0,03120;34,54960
0,2324;34,96607;-0,03108;34,96607
0,2341;35,38020;-0,03096;35,38020
0,2358;35,79190;-0,03096;35,79190
0,2374;36,20126;-0,03083;36,20126
0,2391;36,60819;-0,03071;36,60819
0,2408;37,01301;-0,03058;37,01301
0,2425;37,41563;-0,03045;37,41563
0,2442;37,81603;-0,03032;37,81603
0,2461;38,25845;-0,03018;38,25845
0,2480;38,69855;-0,03005;38,69855
0,2498;39,13643;-0,02991;39,13643
0,2517;39,57222;-0,02978;39,57222
0,2536;40,00626;-0,02964;40,00626
0,2555;40,43867;-0,02950;40,43867
0,2573;40,86957;-0,02936;40,86957
0,2592;41,29919;-0,02922;41,29919
0,2611;41,72718;-0,02908;41,72718
0,2630;42,15342;-0,02893;42,15342
0,2649;42,57780;-0,02878;42,57780
0,2667;43,00009;-0,02863;43,00009
0,2686;43,42040;-0,02849;43,42040
0,2705;43,83849;-0,02834;43,83849
0,2724;44,25461;-0,02819;44,25461
0,2742;44,66875;-0,02804;44,66875
0,2761;45,08126;-0,02788;45,08126
0,2780;45,49248;-0,02774;45,49248
0,2799;45,90266;-0,02758;45,90266
0,2818;46,31215;-0,02742;46,31215
0,2836;46,72081;-0,02726;46,72081
0,2855;47,12820;-0,02711;47,12820
0,2874;47,53419;-0,02695;47,53419
0,2893;47,93855;-0,02679;47,93855
0,2911;48,34117;-0,02663;48,34117
0,2930;48,74250;-0,02648;48,74250
0,2949;49,14256;-0,02632;49,14256
0,2970;49,58149;-0,02615;49,58149
0,2990;50,01937;-0,02600;50,01937
0,3011;50,45632;-0,02583;50,45632
0,3032;50,89223;-0,02567;50,89223
0,3052;51,32685;-0,02551;51,32685
0,3073;51,76031;-0,02518;51,76031
0,3093;52,19237;-0,02501;52,19237
0,3114;52,62327;-0,02485;52,62327
0,3135;53,05301;-0,02469;53,05301
0,3155;53,48181;-0,02452;53,48181
0,3176;53,90980;-0,02436;53,90980
0,3197;54,33709;-0,02419;54,33709
0,3217;54,76357;-0,02402;54,76357
0,3238;55,18923;-0,02386;55,18923
0,3259;55,61373;-0,02369;55,61373
0,3279;56,03706;-0,02336;56,03706
0,3300;56,45911;-0,02319;56,45911
0,3321;56,87989;-0,02302;56,87989
0,3341;57,29961;-0,02286;57,29961
0,3362;57,71841;-0,02268;57,71841
0,3383;58,13627;-0,02252;58,13627
0,3403;58,55308;-0,02235;58,55308
0,3424;58,96873;-0,02218;58,96873
0,3445;59,38311;-0,02202;59,38311
0,3465;59,79631;-0,02185;59,79631
0,3486;60,20812;-0,02151;60,20812
0,3507;60,61877;-0,02134;60,61877
0,3527;61,02837;-0,02117;61,02837
0,3548;61,43704;-0,02101;61,43704
0,3568;61,84454;-0,02083;61,84454
0,3589;62,25088;-0,02066;62,25088
0,3610;62,65594;-0,02050;62,65594
0,3630;63,05948;-0,02033;63,05948
0,3651;63,46163;-0,02016;63,46163
0,3672;63,86239;-0,01999;63,86239
0,3694;64,29794;-0,01965;64,29794
0,3717;64,73222;-0,01949;64,73222
0,3739;65,16509;-0,01932;65,16509
0,3762;65,59681;-0,01915;65,59681
0,3784;66,02712;-0,01899;66,02712
0,3807;66,45593;-0,01866;66,45593
0,3829;66,88357;-0,01848;66,88357
0,3852;67,31004;-0,01831;67,31004
0,3874;67,73559;-0,01815;67,73559
0,3897;68,16044;-0,01798;68,16044
0,3920;68,58447;-0,01765;68,58447
0,3942;69,00745;-0,01749;69,00745
0,3965;69,42939;-0,01732;69,42939
0,3987;69,84993;-0,01716;69,84993
0,4010;70,26919;-0,01699;70,26919
0,4032;70,68728;-0,01666;70,68728
0,4055;71,10422;-0,01649;71,10422
0,4077;71,51998;-0,01633;71,51998
0,4100;71,93459;-0,01617;71,93459
0,4122;72,34803;-0,01600;72,34803
0,4145;72,76054;-0,01567;72,76054
0,4167;73,17235;-0,01551;73,17235
0,4190;73,58357;-0,01534;73,58357
0,4212;73,99434;-0,01518;73,99434
0,4235;74,40475;-0,01502;74,40475
0,4257;74,81481;-0,01469;74,81481
0,4280;75,22406;-0,01454;75,22406
0,4303;75,63238;-0,01437;75,63238
0,4325;76,03977;-0,01421;76,03977
0,4348;76,44588;-0,01405;76,44588
0,4370;76,85082;-0,01373;76,85082
0,4393;77,25460;-0,01356;77,25460
0,4415;77,65710;-0,01341;77,65710
0,4438;78,05831;-0,01325;78,05831
0,4462;78,49154;-0,01293;78,49154
0,4487;78,92349;-0,01277;78,92349
0,4511;79,35474;-0,01261;79,35474
0,4535;79,78517;-0,01244;79,78517
0,4560;80,21444;-0,01213;80,21444
0,4584;80,64255;-0,01197;80,64255
0,4609;81,06914;-0,01181;81,06914
0,4633;81,49433;-0,01150;81,49433
0,4657;81,91790;-0,01134;81,91790
0,4682;82,33984;-0,01118;82,33984
0,4706;82,76003;-0,01087;82,76003
0,4731;83,17847;-0,01071;83,17847
0,4755;83,59505;-0,01056;83,59505
0,4779;84,00989;-0,01040;84,00989
0,4804;84,42263;-0,01009;84,42263
0,4828;84,83351;-0,00994;84,83351
0,4853;85,24288;-0,00978;85,24288
0,4877;85,65085;-0,00947;85,65085
0,4901;86,05765;-0,00931;86,05765
0,4926;86,46329;-0,00916;86,46329
0,4950;86,86765;-0,00885;86,86765
0,4975;87,27062;-0,00870;87,27062
0,4999;87,67184;-0,00855;87,67184
0,5025;88,10180;-0,00824;88,10180
0,5052;88,52944;-0,00808;88,52944
0,5078;88,95499;-0,00794;88,95499
0,5104;89,37902;-0,00763;89,37902
0,5130;89,80166;-0,00747;89,80166
0,5157;90,22324;-0,00718;90,22324
0,5183;90,64390;-0,00702;90,64390
0,5209;91,06351;-0,00687;91,06351
0,5236;91,48219;-0,00657;91,48219
0,5262;91,89970;-0,00642;91,89970
0,5288;92,31605;-0,00611;92,31605
0,5314;92,73147;-0,00596;92,73147
0,5341;93,14596;-0,00582;93,14596
0,5367;93,55928;-0,00552;93,55928
0,5393;93,97155;-0,00536;93,97155
0,5420;94,38278;-0,00507;94,38278
0,5446;94,79273;-0,00492;94,79273
0,5472;95,20163;-0,00477;95,20163
0,5498;95,60937;-0,00447;95,60937
0,5525;96,01617;-0,00433;96,01617
0,5551;96,42216;-0,00403;96,42216
0,5577;96,82769;-0,00388;96,82769
0,5604;97,23321;-0,00373;97,23321
0,5630;97,63897;-0,00344;97,63897
0,5656;98,04484;-0,00329;98,04484
0,5682;98,45095;-0,00299;98,45095
0,5709;98,85694;-0,00284;98,85694
0,5735;99,26305;-0,00270;99,26305
0,5761;99,66892;-0,00240;99,66892
0,5788;100,07433;-0,00226;100,07433
0,5814;100,47904;-0,00196;100,47904
0,5840;100,88294;-0,00182;100,88294
0,5866;101,28578;-0,00167;101,28578
0,5893;101,68782;-0,00137;101,68782
0,5919;102,08880;-0,00123;102,08880
0,5947;102,51726;-0,00094;102,51726
0,5975;102,94466;-0,00079;102,94466
0,6003;103,36986;-0,00050;103,36986
0,6032;103,79028;-0,00035;103,79028
0,6060;104,20302;-0,00006;104,20302
0,6088;104,60634;0,00009;104,60634
0,6118;105,02665;0,00038;105,02665
0,6148;105,43776;0,00053;105,43776
0,6178;105,84095;0,00082;105,84095
0,6210;106,26091;0,00111;106,26091
0,6242;106,67272;0,00126;106,67272
0,6274;107,07662;0,00155;107,07662
0,6308;107,49692;0,00185;107,49692
0,6341;107,91083;0,00215;107,91083
0,6375;108,32031;0,00229;108,32031
0,6409;108,72782;0,00260;108,72782
0,6443;109,13544;0,00289;109,13544
0,6477;109,54538;0,00320;109,54538
0,6510;109,95987;0,00351;109,95987
0,6544;110,38064;0,00366;110,38064
0,6576;110,78466;0,00398;110,78466
0,6608;111,19542;0,00429;111,19542
0,6640;111,61049;0,00461;111,61049
0,6672;112,02649;0,00477;112,02649
0,6704;112,44121;0,00510;112,44121
0,6736;112,85337;0,00543;112,85337
0,6768;113,26297;0,00560;113,26297
0,6799;113,67082;0,00593;113,67082
0,6831;114,07762;0,00627;114,07762
0,6863;114,48303;0,00645;114,48303
0,6895;114,88646;0,00680;114,88646
0,6929;115,30945;0,00716;115,30945
0,6963;115,72766;0,00753;115,72766
0,6997;116,14273;0,00790;116,14273
0,7030;116,55815;0,00809;116,55815
0,7064;116,97938;0,00848;116,97938
0,7096;117,38782;0,00887;117,38782
0,7128;117,78904;0,00926;117,78904
0,7166;118,19235;0,00968;118,19235
0,7224;118,59799;0,01032;118,59799
1,2535;118,92507;0,61062;118,92507
1,2843;119,33350;0,64887;119,33350
1,2890;119,74170;0,65344;119,74170
1,2935;120,15281;0,66023;120,15281
1,2982;120,56323;0,66471;120,56323
1,3034;120,96386;0,67136;120,96386
1,3119;121,36438;0,68238;121,36438
1,3258;121,76863;0,69780;121,76863
1,3350;122,17869;0,70903;122,17869
1,3423;122,58189;0,71828;122,58189
1,3496;122,98939;0,72786;122,98939
1,3566;123,39934;0,73530;123,39934
1,3635;123,80673;0,74563;123,80673
1,3691;124,21516;0,75372;124,21516
1,3742;124,61824;0,76212;124,61824
1,3789;125,02621;0,76789;125,02621
1,3834;125,42662;0,77683;125,42662
1,3892;125,83191;0,78610;125,83191
1,5764;126,17493;1,39259;126,17493
1,6703;126,21008;2,00601;126,21008
1,7397;126,22998;2,60892;126,22998
1,7998;126,24442;3,21927;126,24442
1,8543;126,25745;3,82195;126,25745
1,9068;126,26769;4,42680;126,26769
1,9594;126,27747;5,03472;126,27747
2,0138;126,28550;5,65058;126,28550
2,0702;126,29447;6,25935;126,29447
2,1302;126,30145;6,86724;126,30145
2,1960;126,30983;7,47757;126,30983
2,1975;126,30995;7,47757;126,30995
2,2016;126,30995;7,52719;126,30995
