Part protocol
Network name;Part_OP10_MP-002_2020-08-26_15-40-52_0027_OK.csv
Protocol version;2.01.00

Index;Result information;Process values - curve related;Process values - EO related;Evaluation objects settings;Switch signal settings;Device information;Channel-X settings;Channel-Y settings;Cycle control settings;Evaluation settings;Trigger Y settings;Block settings;Measuring curve;Measuring points;Sequence;
Line;10;30;40;70;100;120;150;190;220;240;250;260;270;280;570;



Result information
Date;2020/08/26
Time;15:40:52
Cycle number;27
Total result;OK
Triggered switch signals
Part serial number;0027
Measuring program name;D57-Right
Measuring program number;2
Zero X offset;0,00;mm
Tara Y offset;0,0;kN









Process values - curve related
Block X;116,05;mm;XMIN-X;-0,04;mm
Block Y;4,8;kN;XMIN-Y;0,0;kN
Ref X;-;mm;XMAX-X;116,05;mm
Peak-peak X;116,09;mm;XMAX-Y;4,8;kN
Peak-peak Y;4,9;kN;YMIN-X;-0,04;mm
;;;YMIN-Y;0,0;kN
;;;YMAX-X;116,05;mm
;;;YMAX-Y;4,9;kN

Process values - EO related;Result;Entry;Exit;XMIN-X;XMIN-Y;XMAX-X;XMAX-Y;YMIN-Y;YMIN-X;YMAX-Y;YMAX-X
;;;;mm;kN;mm;kN;kN;mm;kN;mm
EO-01;OK;0,7;0,7;;;;;0,7;115,00;0,7;115,23;;;;;;
EO-02;OK;;116,03;116,01;2,3;116,03;3,1;2,3;116,01;;;;;;;;
EO-03;None;
EO-04;None;
























Evaluation objects settings;Reaction;X reference;Y-Reference;XMin;XMax;YMin;YMax;Entry;Exit;Curve part;Catch zone X;Catch zone Y
EO-01;UNI-BOX;ABSOLUTE;-;115,00;115,50;0,4;2,0;LEFT;RIGHT;ANY;+50%;+50%
EO-02;UNI-BOX;ABSOLUTE;-;115,40;117,10;2,3;3,3;ANY;ABOVE;ANY;+50%;+50%
EO-03;OFF
EO-04;OFF

























Switch signal settings;Channel;Threshold at;;Trigger from;Reference;Latch until
Type S1;OFF
Type S2;OFF

















Device information
Device type;maXYmos BL
Device type number;5867B1011
Device serial number;5182443
Firmware version;2.3.2 (r22473-BL_v2.3.x)
-
-
-
-
-
IP Address;10.0.0.18
Network name;OP10
Profibus address;10
-
-
-
Station name;OP10
Company name;
Comment;











Channel-X settings
Use the settings from global setup;True
Sensor-X type;Â±10V
Unit;mm
Used range from;0,00;mm
Used range to;200,00;mm
Decimal places;XXXX.XX
Scaling by;Teach-In
Point 1;0,00;mm;-0,350;%
Point 2;200,00;mm;10,000;%
Invert signal;FALSE
Filter;20 Hz
Test point;0,00;mm
Tolerance;2,00;mm
Enable sensor test by dig-input;FALSE
Zoom from;100,00;mm
Zoom to;120,00;mm























Channel-Y settings
Use the settings from global setup;True
Sensor-Y type;Strain Gage
Unit;kN
Used range from;0,0;kN
Used range to;20,0;kN
Decimal places;XXXXX.X
Scaling by;Teach-In
Point 1;0,0;kN;-0,01562;%
Point 2;20,0;kN;2,00000;%
Invert signal;FALSE
Filter;1 Hz
Piezo reset;-
Test point;0,0;kN
Tolerance;0,1;kN
Enable sensor test by dig-input;FALSE
Zoom from;0,0;kN
Zoom to;5,0;kN












Cycle control settings
Use the settings from global setup;True
Measuring function;Y (X)
Delta-X;Automatic
START condition;Dig-Input
STOP condition;Dig-Input
Cycle time out;20,00;s
Turning point RIGHT;YMAX
Turning point LEFT;NONE
Cut curve at;NONE










Evaluation settings
Capture only first NOK-EO for statistics;False
Hysteresis-X;0,0;%
Hysteresis-Y;100,0;%






Trigger Y settings
Threshold;1,8;kN
Value X at TRIGGER Y;0,00;mm
Approach from;BELOW






Block settings
Value X at block;XMAX
Block at;0,00;mm







Measuring curve
Number of measuring points;286
Ref. Graph on;ABSOLUTE
Curve segments;0;286;285;286;


Time;X(ABSOLUTE);Y;X (ABSOLUTE)


s;mm;kN;mm
0,0000;-0,03641;-0,03506;-0,03641
0,1057;0,37319;-0,03505;0,37319
0,1089;0,79222;-0,03504;0,79222
0,1111;1,21905;-0,03504;1,21905
0,1130;1,66449;-0,03503;1,66449
0,1145;2,07921;-0,03502;2,07921
0,1158;2,48008;-0,03502;2,48008
0,1172;2,90877;-0,03501;2,90877
0,1185;3,35655;-0,03501;3,35655
0,1198;3,81480;-0,03499;3,81480
0,1211;4,27666;-0,03498;4,27666
0,1224;4,73724;-0,03498;4,73724
0,1237;5,19305;-0,03497;5,19305
0,1250;5,64129;-0,03495;5,64129
0,1263;6,07987;-0,03495;6,07987
0,1277;6,50786;-0,03493;6,50786
0,1290;6,92561;-0,03490;6,92561
0,1303;7,33451;-0,03488;7,33451
0,1316;7,73631;-0,03488;7,73631
0,1331;8,18897;-0,03485;8,18897
0,1346;8,63652;-0,03482;8,63652
0,1361;9,08080;-0,03478;9,08080
0,1376;9,52369;-0,03478;9,52369
0,1391;9,96681;-0,03473;9,96681
0,1406;10,41156;-0,03470;10,41156
0,1421;10,85899;-0,03464;10,85899
0,1436;11,30933;-0,03460;11,30933
0,1451;11,76269;-0,03460;11,76269
0,1466;12,21861;-0,03454;12,21861
0,1479;12,61913;-0,03448;12,61913
0,1493;13,02059;-0,03441;13,02059
0,1506;13,42239;-0,03441;13,42239
0,1519;13,82395;-0,03434;13,82395
0,1532;14,22471;-0,03426;14,22471
0,1547;14,68098;-0,03418;14,68098
0,1562;15,13446;-0,03418;15,13446
0,1577;15,58445;-0,03410;15,58445
0,1592;16,03025;-0,03400;16,03025
0,1607;16,47139;-0,03391;16,47139
0,1622;16,90741;-0,03381;16,90741
0,1637;17,33831;-0,03381;17,33831
0,1652;17,76374;-0,03370;17,76374
0,1667;18,18369;-0,03359;18,18369
0,1682;18,59818;-0,03347;18,59818
0,1697;19,00720;-0,03335;19,00720
0,1712;19,41098;-0,03335;19,41098
0,1729;19,85945;-0,03322;19,85945
0,1746;20,30199;-0,03308;20,30199
0,1763;20,73929;-0,03294;20,73929
0,1780;21,17170;-0,03279;21,17170
0,1797;21,59958;-0,03263;21,59958
0,1814;22,02279;-0,03248;22,02279
0,1830;22,44159;-0,03231;22,44159
0,1847;22,85596;-0,03214;22,85596
0,1864;23,26591;-0,03214;23,26591
0,1881;23,67155;-0,03197;23,67155
0,1898;24,07300;-0,03178;24,07300
0,1917;24,51437;-0,03160;24,51437
0,1936;24,95109;-0,03139;24,95109
0,1954;25,38316;-0,03120;25,38316
0,1973;25,81068;-0,03099;25,81068
0,1992;26,23413;-0,03077;26,23413
0,2011;26,65362;-0,03055;26,65362
0,2029;27,06986;-0,03033;27,06986
0,2048;27,48329;-0,03010;27,48329
0,2067;27,89441;-0,02986;27,89441
0,2086;28,30342;-0,02961;28,30342
0,2105;28,71069;-0,02936;28,71069
0,2123;29,11622;-0,02910;29,11622
0,2142;29,52023;-0,02884;29,52023
0,2161;29,92296;-0,02857;29,92296
0,2180;30,32465;-0,02829;30,32465
0,2198;30,72540;-0,02800;30,72540
0,2217;31,12545;-0,02772;31,12545
0,2238;31,56473;-0,02742;31,56473
0,2259;32,00331;-0,02713;32,00331
0,2279;32,44120;-0,02650;32,44120
0,2300;32,87873;-0,02619;32,87873
0,2320;33,31615;-0,02586;33,31615
0,2341;33,75368;-0,02553;33,75368
0,2362;34,19145;-0,02519;34,19145
0,2382;34,62945;-0,02485;34,62945
0,2403;35,06803;-0,02450;35,06803
0,2424;35,50696;-0,02414;35,50696
0,2444;35,94636;-0,02378;35,94636
0,2465;36,38633;-0,02342;36,38633
0,2484;36,78685;-0,02304;36,78685
0,2503;37,18807;-0,02266;37,18807
0,2521;37,58976;-0,02228;37,58976
0,2540;37,99214;-0,02190;37,99214
0,2559;38,39510;-0,02150;38,39510
0,2578;38,79876;-0,02110;38,79876
0,2596;39,20312;-0,02069;39,20312
0,2615;39,60795;-0,02028;39,60795
0,2634;40,01324;-0,01986;40,01324
0,2653;40,41865;-0,01944;40,41865
0,2672;40,82418;-0,01901;40,82418
0,2690;41,22958;-0,01858;41,22958
0,2709;41,63453;-0,01814;41,63453
0,2728;42,03912;-0,01769;42,03912
0,2747;42,44337;-0,01725;42,44337
0,2765;42,84703;-0,01679;42,84703
0,2784;43,25011;-0,01633;43,25011
0,2803;43,65237;-0,01587;43,65237
0,2822;44,05394;-0,01541;44,05394
0,2841;44,45469;-0,01493;44,45469
0,2861;44,89421;-0,01397;44,89421
0,2882;45,33244;-0,01348;45,33244
0,2902;45,76916;-0,01299;45,76916
0,2923;46,20413;-0,01250;46,20413
0,2944;46,63759;-0,01200;46,63759
0,2964;47,06919;-0,01149;47,06919
0,2985;47,49881;-0,01099;47,49881
0,3006;47,92656;-0,01047;47,92656
0,3026;48,35199;-0,00995;48,35199
0,3047;48,77544;-0,00944;48,77544
0,3068;49,19691;-0,00839;49,19691
0,3088;49,61641;-0,00786;49,61641
0,3109;50,03404;-0,00732;50,03404
0,3130;50,44969;-0,00679;50,44969
0,3150;50,86336;-0,00624;50,86336
0,3171;51,27517;-0,00570;51,27517
0,3192;51,68547;-0,00516;51,68547
0,3212;52,09413;-0,00460;52,09413
0,3233;52,50129;-0,00405;52,50129
0,3254;52,90693;-0,00349;52,90693
0,3274;53,31071;-0,00237;53,31071
0,3295;53,71274;-0,00181;53,71274
0,3315;54,11291;-0,00124;54,11291
0,3338;54,54765;-0,00068;54,54765
0,3361;54,98053;-0,00010;54,98053
0,3383;55,41178;0,00047;55,41178
0,3406;55,84151;0,00162;55,84151
0,3428;56,26962;0,00220;56,26962
0,3451;56,69598;0,00278;56,69598
0,3473;57,12048;0,00337;57,12048
0,3496;57,54311;0,00395;57,54311
0,3518;57,96412;0,00513;57,96412
0,3541;58,38384;0,00571;58,38384
0,3563;58,80240;0,00630;58,80240
0,3586;59,21992;0,00689;59,21992
0,3608;59,63662;0,00749;59,63662
0,3631;60,05250;0,00867;60,05250
0,3653;60,46757;0,00927;60,46757
0,3676;60,88194;0,00987;60,88194
0,3698;61,29561;0,01046;61,29561
0,3721;61,70859;0,01106;61,70859
0,3744;62,12110;0,01225;62,12110
0,3766;62,53291;0,01286;62,53291
0,3789;62,94390;0,01346;62,94390
0,3811;63,35408;0,01405;63,35408
0,3834;63,76345;0,01465;63,76345
0,3856;64,17212;0,01585;64,17212
0,3879;64,58032;0,01646;64,58032
0,3901;64,98805;0,01705;64,98805
0,3924;65,39533;0,01765;65,39533
0,3946;65,80213;0,01825;65,80213
0,3969;66,20835;0,01945;66,20835
0,3991;66,61423;0,02005;66,61423
0,4014;67,01964;0,02064;67,01964
0,4036;67,42469;0,02124;67,42469
0,4059;67,82952;0,02183;67,82952
0,4081;68,23400;0,02303;68,23400
0,4104;68,63824;0,02362;68,63824
0,4127;69,04237;0,02421;69,04237
0,4149;69,44603;0,02481;69,44603
0,4172;69,84946;0,02539;69,84946
0,4194;70,25254;0,02657;70,25254
0,4217;70,65516;0,02716;70,65516
0,4239;71,05731;0,02774;71,05731
0,4262;71,45876;0,02832;71,45876
0,4284;71,85905;0,02891;71,85905
0,4309;72,29123;0,03007;72,29123
0,4333;72,72178;0,03065;72,72178
0,4357;73,15081;0,03123;73,15081
0,4382;73,57822;0,03238;73,57822
0,4406;74,00423;0,03294;74,00423
0,4431;74,42861;0,03352;74,42861
0,4455;74,85136;0,03408;74,85136
0,4479;75,27260;0,03522;75,27260
0,4504;75,69233;0,03578;75,69233
0,4528;76,11065;0,03634;76,11065
0,4553;76,52759;0,03745;76,52759
0,4577;76,94312;0,03801;76,94312
0,4602;77,35738;0,03856;77,35738
0,4626;77,77047;0,03965;77,77047
0,4650;78,18216;0,04020;78,18216
0,4675;78,59222;0,04075;78,59222
0,4699;79,00089;0,04128;79,00089
0,4724;79,40793;0,04236;79,40793
0,4748;79,81345;0,04288;79,81345
0,4772;80,21747;0,04342;80,21747
0,4797;80,61973;0,04448;80,61973
0,4821;81,01990;0,04500;81,01990
0,4847;81,44847;0,04551;81,44847
0,4874;81,87460;0,04655;81,87460
0,4900;82,29852;0,04706;82,29852
0,4926;82,72034;0,04808;82,72034
0,4953;83,14064;0,04859;83,14064
0,4979;83,55979;0,04909;83,55979
0,5005;83,97812;0,05009;83,97812
0,5031;84,39586;0,05058;84,39586
0,5058;84,81291;0,05156;84,81291
0,5084;85,22914;0,05204;85,22914
0,5110;85,64479;0,05252;85,64479
0,5137;86,05998;0,05348;86,05998
0,5163;86,47493;0,05396;86,47493
0,5189;86,88954;0,05489;86,88954
0,5215;87,30391;0,05536;87,30391
0,5242;87,71735;0,05583;87,71735
0,5268;88,12974;0,05674;88,12974
0,5294;88,54085;0,05720;88,54085
0,5321;88,95068;0,05809;88,95068
0,5347;89,35958;0,05854;89,35958
0,5373;89,76790;0,05898;89,76790
0,5399;90,17564;0,05986;90,17564
0,5426;90,58302;0,06030;90,58302
0,5452;90,99006;0,06116;90,99006
0,5478;91,39698;0,06158;91,39698
0,5505;91,80379;0,06201;91,80379
0,5531;92,21013;0,06284;92,21013
0,5557;92,61577;0,06326;92,61577
0,5583;93,02025;0,06408;93,02025
0,5610;93,42344;0,06448;93,42344
0,5636;93,82536;0,06489;93,82536
0,5662;94,22600;0,06568;94,22600
0,5690;94,65375;0,06608;94,65375
0,5719;95,08023;0,06687;95,08023
0,5747;95,50531;0,06725;95,50531
0,5775;95,92899;0,06802;95,92899
0,5803;96,35116;0,06840;96,35116
0,5831;96,77205;0,06915;96,77205
0,5859;97,19189;0,06952;97,19189
0,5888;97,61069;0,07026;97,61069
0,5916;98,02843;0,07062;98,02843
0,5944;98,44490;0,07133;98,44490
0,5972;98,86008;0,07169;98,86008
0,6000;99,27411;0,07240;99,27411
0,6028;99,68661;0,07274;99,68661
0,6057;100,09773;0,07343;100,09773
0,6085;100,50756;0,07377;100,50756
0,6113;100,91634;0,07444;100,91634
0,6141;101,32408;0,07477;101,32408
0,6169;101,73077;0,07543;101,73077
0,6197;102,13618;0,07577;102,13618
0,6225;102,54019;0,07640;102,54019
0,6254;102,94303;0,07673;102,94303
0,6282;103,34483;0,07736;103,34483
0,6310;103,74582;0,07766;103,74582
0,6338;104,14634;0,07828;104,14634
0,6366;104,54663;0,07859;104,54663
0,6394;104,94680;0,07919;104,94680
0,6424;105,37339;0,07949;105,37339
0,6455;105,79940;0,08008;105,79940
0,6485;106,22460;0,08066;106,22460
0,6515;106,64723;0,08095;106,64723
0,6545;107,06416;0,08152;107,06416
0,6575;107,47120;0,08180;107,47120
0,6607;107,88860;0,08237;107,88860
0,6640;108,30844;0,08292;108,30844
0,6676;108,71746;0,08347;108,71746
0,6717;109,13206;0,08400;109,13206
0,6768;109,53211;0,08481;109,53211
0,6862;109,93403;0,08613;109,93403
0,7444;110,33443;0,09549;110,33443
0,7536;110,73810;0,09749;110,73810
0,7600;111,14560;0,09880;111,14560
0,7654;111,55741;0,10018;111,55741
0,7705;111,97271;0,10168;111,97271
0,7756;112,38080;0,10272;112,38080
0,7821;112,78365;0,10495;112,78365
1,2543;113,18917;0,66396;113,18917
1,2614;113,59423;0,67245;113,59423
1,2661;114,00464;0,67869;114,00464
1,2704;114,41738;0,68280;114,41738
1,2748;114,83059;0,68686;114,83059
1,2795;115,23169;0,69288;115,23169
1,2864;115,63466;0,69882;115,63466
1,4764;115,97849;1,30156;115,97849
1,5402;116,00200;1,90555;116,00200
1,5890;116,01655;2,51115;116,01655
1,6322;116,02796;3,12080;116,02796
1,6735;116,03751;3,74186;116,03751
1,7129;116,04367;4,34743;116,04367
1,7466;116,05287;4,83463;116,05287
1,7467;116,05287;4,86302;116,05287
