Part protocol
Network name;Part_OP10_MP-002_2020-08-26_15-21-22_0024_OK.csv
Protocol version;2.01.00

Index;Result information;Process values - curve related;Process values - EO related;Evaluation objects settings;Switch signal settings;Device information;Channel-X settings;Channel-Y settings;Cycle control settings;Evaluation settings;Trigger Y settings;Block settings;Measuring curve;Measuring points;Sequence;
Line;10;30;40;70;100;120;150;190;220;240;250;260;270;280;570;



Result information
Date;2020/08/26
Time;15:21:22
Cycle number;24
Total result;OK
Triggered switch signals
Part serial number;0024
Measuring program name;D57-Right
Measuring program number;2
Zero X offset;0,00;mm
Tara Y offset;0,0;kN









Process values - curve related
Block X;116,09;mm;XMIN-X;0,02;mm
Block Y;4,6;kN;XMIN-Y;0,0;kN
Ref X;-;mm;XMAX-X;116,09;mm
Peak-peak X;116,07;mm;XMAX-Y;4,6;kN
Peak-peak Y;4,8;kN;YMIN-X;0,02;mm
;;;YMIN-Y;0,0;kN
;;;YMAX-X;116,09;mm
;;;YMAX-Y;4,8;kN

Process values - EO related;Result;Entry;Exit;XMIN-X;XMIN-Y;XMAX-X;XMAX-Y;YMIN-Y;YMIN-X;YMAX-Y;YMAX-X
;;;;mm;kN;mm;kN;kN;mm;kN;mm
EO-01;OK;0,7;0,7;;;;;0,7;115,00;0,7;115,18;;;;;;
EO-02;OK;;116,07;116,05;2,3;116,07;3,3;2,3;116,05;;;;;;;;
EO-03;None;
EO-04;None;
























Evaluation objects settings;Reaction;X reference;Y-Reference;XMin;XMax;YMin;YMax;Entry;Exit;Curve part;Catch zone X;Catch zone Y
EO-01;UNI-BOX;ABSOLUTE;-;115,00;115,50;0,4;2,0;LEFT;RIGHT;ANY;+50%;+50%
EO-02;UNI-BOX;ABSOLUTE;-;115,40;117,10;2,3;3,3;ANY;ABOVE;ANY;+50%;+50%
EO-03;OFF
EO-04;OFF

























Switch signal settings;Channel;Threshold at;;Trigger from;Reference;Latch until
Type S1;OFF
Type S2;OFF

















Device information
Device type;maXYmos BL
Device type number;5867B1011
Device serial number;5182443
Firmware version;2.3.2 (r22473-BL_v2.3.x)
-
-
-
-
-
IP Address;10.0.0.18
Network name;OP10
Profibus address;10
-
-
-
Station name;OP10
Company name;
Comment;











Channel-X settings
Use the settings from global setup;True
Sensor-X type;Â±10V
Unit;mm
Used range from;0,00;mm
Used range to;200,00;mm
Decimal places;XXXX.XX
Scaling by;Teach-In
Point 1;0,00;mm;-0,350;%
Point 2;200,00;mm;10,000;%
Invert signal;FALSE
Filter;20 Hz
Test point;0,00;mm
Tolerance;2,00;mm
Enable sensor test by dig-input;FALSE
Zoom from;100,00;mm
Zoom to;120,00;mm























Channel-Y settings
Use the settings from global setup;True
Sensor-Y type;Strain Gage
Unit;kN
Used range from;0,0;kN
Used range to;20,0;kN
Decimal places;XXXXX.X
Scaling by;Teach-In
Point 1;0,0;kN;-0,01562;%
Point 2;20,0;kN;2,00000;%
Invert signal;FALSE
Filter;1 Hz
Piezo reset;-
Test point;0,0;kN
Tolerance;0,1;kN
Enable sensor test by dig-input;FALSE
Zoom from;0,0;kN
Zoom to;5,0;kN












Cycle control settings
Use the settings from global setup;True
Measuring function;Y (X)
Delta-X;Automatic
START condition;Dig-Input
STOP condition;Dig-Input
Cycle time out;20,00;s
Turning point RIGHT;YMAX
Turning point LEFT;NONE
Cut curve at;NONE










Evaluation settings
Capture only first NOK-EO for statistics;False
Hysteresis-X;0,0;%
Hysteresis-Y;100,0;%






Trigger Y settings
Threshold;1,8;kN
Value X at TRIGGER Y;0,00;mm
Approach from;BELOW






Block settings
Value X at block;XMAX
Block at;0,00;mm







Measuring curve
Number of measuring points;288
Ref. Graph on;ABSOLUTE
Curve segments;0;288;287;288;


Time;X(ABSOLUTE);Y;X (ABSOLUTE)


s;mm;kN;mm
0,0000;0,02412;-0,03562;0,02412
0,0988;0,43151;-0,03557;0,43151
0,1022;0,85996;-0,03556;0,85996
0,1044;1,26805;-0,03555;1,26805
0,1063;1,68847;-0,03555;1,68847
0,1080;2,12868;-0,03554;2,12868
0,1095;2,56505;-0,03553;2,56505
0,1108;2,97488;-0,03553;2,97488
0,1121;3,40264;-0,03552;3,40264
0,1134;3,84006;-0,03551;3,84006
0,1148;4,28073;-0,03551;4,28073
0,1161;4,71978;-0,03550;4,71978
0,1174;5,15394;-0,03548;5,15394
0,1187;5,58065;-0,03547;5,58065
0,1200;5,99793;-0,03547;5,99793
0,1213;6,40497;-0,03546;6,40497
0,1228;6,85775;-0,03543;6,85775
0,1243;7,29912;-0,03541;7,29912
0,1258;7,73177;-0,03541;7,73177
0,1273;8,15778;-0,03538;8,15778
0,1288;8,57902;-0,03535;8,57902
0,1303;8,99735;-0,03532;8,99735
0,1318;9,41428;-0,03528;9,41428
0,1333;9,83144;-0,03528;9,83144
0,1348;10,24977;-0,03524;10,24977
0,1363;10,66996;-0,03520;10,66996
0,1378;11,09201;-0,03515;11,09201
0,1394;11,51593;-0,03510;11,51593
0,1409;11,94136;-0,03510;11,94136
0,1424;12,36772;-0,03504;12,36772
0,1439;12,79431;-0,03498;12,79431
0,1454;13,22032;-0,03492;13,22032
0,1469;13,64517;-0,03485;13,64517
0,1484;14,06815;-0,03485;14,06815
0,1499;14,48846;-0,03477;14,48846
0,1514;14,90551;-0,03470;14,90551
0,1529;15,31883;-0,03461;15,31883
0,1544;15,72820;-0,03452;15,72820
0,1559;16,13326;-0,03452;16,13326
0,1574;16,53389;-0,03443;16,53389
0,1591;16,97922;-0,03434;16,97922
0,1608;17,41885;-0,03423;17,41885
0,1624;17,85278;-0,03412;17,85278
0,1641;18,28135;-0,03400;18,28135
0,1658;18,70480;-0,03389;18,70480
0,1675;19,12348;-0,03376;19,12348
0,1692;19,53785;-0,03376;19,53785
0,1709;19,94815;-0,03363;19,94815
0,1726;20,35495;-0,03349;20,35495
0,1743;20,75838;-0,03336;20,75838
0,1760;21,15878;-0,03321;21,15878
0,1778;21,60028;-0,03305;21,60028
0,1797;22,03862;-0,03289;22,03862
0,1816;22,47383;-0,03273;22,47383
0,1835;22,90624;-0,03256;22,90624
0,1853;23,33633;-0,03238;23,33633
0,1872;23,76420;-0,03220;23,76420
0,1891;24,19021;-0,03200;24,19021
0,1910;24,61424;-0,03181;24,61424
0,1929;25,03641;-0,03161;25,03641
0,1947;25,45683;-0,03140;25,45683
0,1966;25,87563;-0,03119;25,87563
0,1985;26,29314;-0,03097;26,29314
0,2004;26,70949;-0,03074;26,70949
0,2022;27,12514;-0,03050;27,12514
0,2041;27,53998;-0,03027;27,53998
0,2060;27,95458;-0,03002;27,95458
0,2079;28,36861;-0,02977;28,36861
0,2098;28,78216;-0,02951;28,78216
0,2116;29,19514;-0,02925;29,19514
0,2135;29,60741;-0,02898;29,60741
0,2154;30,01911;-0,02870;30,01911
0,2173;30,43010;-0,02842;30,43010
0,2191;30,84063;-0,02813;30,84063
0,2210;31,25069;-0,02784;31,25069
0,2229;31,66053;-0,02753;31,66053
0,2248;32,07012;-0,02723;32,07012
0,2266;32,47949;-0,02691;32,47949
0,2285;32,88874;-0,02659;32,88874
0,2304;33,29787;-0,02626;33,29787
0,2323;33,70701;-0,02593;33,70701
0,2342;34,11591;-0,02559;34,11591
0,2360;34,52469;-0,02525;34,52469
0,2379;34,93324;-0,02489;34,93324
0,2398;35,34144;-0,02453;35,34144
0,2417;35,74918;-0,02417;35,74918
0,2435;36,15657;-0,02380;36,15657
0,2454;36,56361;-0,02342;36,56361
0,2473;36,97018;-0,02304;36,97018
0,2492;37,37640;-0,02265;37,37640
0,2511;37,78227;-0,02227;37,78227
0,2529;38,18792;-0,02187;38,18792
0,2548;38,59344;-0,02146;38,59344
0,2567;38,99897;-0,02105;38,99897
0,2586;39,40426;-0,02064;39,40426
0,2604;39,80943;-0,02022;39,80943
0,2623;40,21426;-0,01978;40,21426
0,2642;40,61850;-0,01936;40,61850
0,2661;41,02193;-0,01892;41,02193
0,2680;41,42432;-0,01848;41,42432
0,2698;41,82565;-0,01803;41,82565
0,2717;42,22582;-0,01758;42,22582
0,2738;42,66452;-0,01712;42,66452
0,2758;43,10170;-0,01666;43,10170
0,2779;43,53726;-0,01619;43,53726
0,2800;43,97118;-0,01571;43,97118
0,2820;44,40360;-0,01476;44,40360
0,2841;44,83450;-0,01427;44,83450
0,2862;45,26400;-0,01378;45,26400
0,2882;45,69199;-0,01329;45,69199
0,2903;46,11846;-0,01279;46,11846
0,2924;46,54343;-0,01228;46,54343
0,2944;46,96676;-0,01177;46,96676
0,2965;47,38823;-0,01126;47,38823
0,2986;47,80784;-0,01074;47,80784
0,3006;48,22524;-0,01022;48,22524
0,3027;48,64077;-0,00918;48,64077
0,3047;49,05433;-0,00864;49,05433
0,3068;49,46625;-0,00810;49,46625
0,3089;49,87655;-0,00757;49,87655
0,3109;50,28534;-0,00703;50,28534
0,3130;50,69214;-0,00648;50,69214
0,3151;51,09720;-0,00594;51,09720
0,3171;51,50051;-0,00538;51,50051
0,3192;51,90208;-0,00483;51,90208
0,3213;52,30237;-0,00427;52,30237
0,3235;52,73769;-0,00315;52,73769
0,3258;53,17173;-0,00259;53,17173
0,3280;53,60426;-0,00201;53,60426
0,3303;54,03528;-0,00145;54,03528
0,3325;54,46478;-0,00087;54,46478
0,3348;54,89265;0,00028;54,89265
0,3370;55,31901;0,00086;55,31901
0,3393;55,74397;0,00144;55,74397
0,3415;56,16766;0,00202;56,16766
0,3438;56,58994;0,00261;56,58994
0,3461;57,01118;0,00378;57,01118
0,3483;57,43126;0,00437;57,43126
0,3506;57,85028;0,00496;57,85028
0,3528;58,26873;0,00555;58,26873
0,3551;58,68659;0,00614;58,68659
0,3573;59,10422;0,00734;59,10422
0,3596;59,52092;0,00793;59,52092
0,3618;59,93680;0,00853;59,93680
0,3641;60,35176;0,00912;60,35176
0,3663;60,76624;0,00973;60,76624
0,3686;61,18050;0,01093;61,18050
0,3708;61,59487;0,01153;61,59487
0,3731;62,00912;0,01213;62,00912
0,3753;62,42338;0,01274;62,42338
0,3776;62,83705;0,01334;62,83705
0,3798;63,25014;0,01454;63,25014
0,3821;63,66265;0,01514;63,66265
0,3844;64,07458;0,01574;64,07458
0,3866;64,48592;0,01635;64,48592
0,3889;64,89668;0,01695;64,89668
0,3911;65,30698;0,01815;65,30698
0,3934;65,71681;0,01874;65,71681
0,3956;66,12594;0,01934;66,12594
0,3979;66,53426;0,01995;66,53426
0,4001;66,94130;0,02055;66,94130
0,4024;67,34718;0,02174;67,34718
0,4046;67,75200;0,02233;67,75200
0,4069;68,15601;0,02294;68,15601
0,4091;68,55909;0,02353;68,55909
0,4114;68,96113;0,02412;68,96113
0,4136;69,36211;0,02531;69,36211
0,4161;69,79534;0,02590;69,79534
0,4185;70,22729;0,02649;70,22729
0,4210;70,65807;0,02766;70,65807
0,4234;71,08769;0,02825;71,08769
0,4258;71,51603;0,02883;71,51603
0,4283;71,94285;0,02941;71,94285
0,4307;72,36828;0,03057;72,36828
0,4332;72,79220;0,03115;72,79220
0,4356;73,21483;0,03172;73,21483
0,4380;73,63619;0,03287;73,63619
0,4405;74,05603;0,03343;74,05603
0,4429;74,47436;0,03401;74,47436
0,4454;74,89070;0,03514;74,89070
0,4478;75,30519;0,03569;75,30519
0,4502;75,71758;0,03626;75,71758
0,4527;76,12823;0,03681;76,12823
0,4551;76,53725;0,03792;76,53725
0,4576;76,94440;0,03847;76,94440
0,4600;77,34993;0,03902;77,34993
0,4625;77,75371;0,04011;77,75371
0,4649;78,15644;0,04065;78,15644
0,4673;78,55800;0,04119;78,55800
0,4698;78,95852;0,04226;78,95852
0,4724;79,38861;0,04279;79,38861
0,4750;79,81741;0,04332;79,81741
0,4777;80,24494;0,04438;80,24494
0,4803;80,67071;0,04489;80,67071
0,4829;81,09475;0,04593;81,09475
0,4855;81,51680;0,04644;81,51680
0,4882;81,93699;0,04695;81,93699
0,4908;82,35508;0,04797;82,35508
0,4934;82,77132;0,04847;82,77132
0,4961;83,18581;0,04947;83,18581
0,4987;83,59901;0,04996;83,59901
0,5013;84,01129;0,05045;84,01129
0,5039;84,42287;0,05142;84,42287
0,5066;84,83421;0,05190;84,83421
0,5092;85,24590;0,05286;85,24590
0,5118;85,65795;0,05334;85,65795
0,5145;86,07022;0,05381;86,07022
0,5171;86,48227;0,05474;86,48227
0,5197;86,89419;0,05521;86,89419
0,5223;87,30624;0,05612;87,30624
0,5250;87,71851;0,05658;87,71851
0,5276;88,13079;0,05703;88,13079
0,5302;88,54283;0,05792;88,54283
0,5329;88,95406;0,05836;88,95406
0,5355;89,36436;0,05924;89,36436
0,5381;89,77349;0,05968;89,77349
0,5407;90,18181;0,06011;90,18181
0,5434;90,58896;0,06096;90,58896
0,5460;90,99495;0,06139;90,99495
0,5486;91,39966;0,06222;91,39966
0,5513;91,80321;0,06264;91,80321
0,5539;92,20582;0,06305;92,20582
0,5565;92,60751;0,06386;92,60751
0,5591;93,00803;0,06427;93,00803
0,5620;93,43590;0,06506;93,43590
0,5648;93,86203;0,06546;93,86203
0,5676;94,28676;0,06625;94,28676
0,5704;94,71032;0,06663;94,71032
0,5732;95,13261;0,06740;95,13261
0,5760;95,55373;0,06778;95,55373
0,5789;95,97380;0,06853;95,97380
0,5817;96,39260;0,06890;96,39260
0,5845;96,81046;0,06964;96,81046
0,5873;97,22728;0,07000;97,22728
0,5901;97,64304;0,07072;97,64304
0,5929;98,05788;0,07107;98,05788
0,5957;98,47202;0,07178;98,47202
0,5986;98,88523;0,07213;98,88523
0,6014;99,29715;0,07281;99,29715
0,6042;99,70768;0,07315;99,70768
0,6070;100,11693;0,07383;100,11693
0,6098;100,52502;0,07416;100,52502
0,6126;100,93206;0,07482;100,93206
0,6155;101,33828;0,07514;101,33828
0,6183;101,74404;0,07579;101,74404
0,6211;102,14921;0,07612;102,14921
0,6239;102,55357;0,07675;102,55357
0,6267;102,95689;0,07706;102,95689
0,6295;103,35938;0,07767;103,35938
0,6324;103,76118;0,07798;103,76118
0,6352;104,16229;0,07859;104,16229
0,6380;104,56316;0,07888;104,56316
0,6408;104,96402;0,07948;104,96402
0,6436;105,36478;0,07977;105,36478
0,6464;105,76518;0,08035;105,76518
0,6493;106,16547;0,08063;106,16547
0,6523;106,59124;0,08121;106,59124
0,6553;107,01330;0,08149;107,01330
0,6583;107,42755;0,08204;107,42755
0,6613;107,83017;0,08259;107,83017
0,6645;108,24046;0,08287;108,24046
0,6678;108,64774;0,08340;108,64774
0,6716;109,05664;0,08394;109,05664
0,6761;109,46938;0,08447;109,46938
0,6823;109,87409;0,08551;109,87409
0,7343;110,27496;0,09299;110,27496
0,7518;110,68013;0,09654;110,68013
0,7595;111,08112;0,09818;111,08112
0,7657;111,48955;0,09950;111,48955
0,7713;111,90334;0,10092;111,90334
0,7767;112,31550;0,10243;112,31550
0,7829;112,72591;0,10404;112,72591
0,9356;113,12597;0,21145;113,12597
1,2654;113,53533;0,66736;113,53533
1,2703;113,94365;0,67344;113,94365
1,2744;114,34918;0,67743;114,34918
1,2786;114,76774;0,68137;114,76774
1,2829;115,17629;0,68721;115,17629
1,2885;115,58007;0,69297;115,58007
1,3927;115,98012;0,84683;115,98012
1,5005;116,02936;1,45248;116,02936
1,5587;116,04926;2,05393;116,04926
1,6056;116,06218;2,65728;116,06218
1,6488;116,07126;3,27622;116,07126
1,6901;116,08348;3,89961;116,08348
1,7295;116,09210;4,50280;116,09210
1,7361;116,09349;4,58863;116,09349
1,7464;116,09326;4,75961;116,09326
