Part protocol
Network name;Part_OP10_MP-002_2020-08-26_14-51-27_0017_OK.csv
Protocol version;2.01.00

Index;Result information;Process values - curve related;Process values - EO related;Evaluation objects settings;Switch signal settings;Device information;Channel-X settings;Channel-Y settings;Cycle control settings;Evaluation settings;Trigger Y settings;Block settings;Measuring curve;Measuring points;Sequence;
Line;10;30;40;70;100;120;150;190;220;240;250;260;270;280;570;



Result information
Date;2020/08/26
Time;14:51:27
Cycle number;17
Total result;OK
Triggered switch signals
Part serial number;0017
Measuring program name;D57-Right
Measuring program number;2
Zero X offset;0,00;mm
Tara Y offset;0,0;kN









Process values - curve related
Block X;116,09;mm;XMIN-X;-0,03;mm
Block Y;4,7;kN;XMIN-Y;0,0;kN
Ref X;-;mm;XMAX-X;116,09;mm
Peak-peak X;116,12;mm;XMAX-Y;4,7;kN
Peak-peak Y;4,7;kN;YMIN-X;-0,03;mm
;;;YMIN-Y;0,0;kN
;;;YMAX-X;116,09;mm
;;;YMAX-Y;4,7;kN

Process values - EO related;Result;Entry;Exit;XMIN-X;XMIN-Y;XMAX-X;XMAX-Y;YMIN-Y;YMIN-X;YMAX-Y;YMAX-X
;;;;mm;kN;mm;kN;kN;mm;kN;mm
EO-01;OK;0,6;0,7;;;;;0,6;115,00;0,6;115,27;;;;;;
EO-02;OK;;116,07;116,05;2,3;116,06;3,1;2,3;116,05;;;;;;;;
EO-03;None;
EO-04;None;
























Evaluation objects settings;Reaction;X reference;Y-Reference;XMin;XMax;YMin;YMax;Entry;Exit;Curve part;Catch zone X;Catch zone Y
EO-01;UNI-BOX;ABSOLUTE;-;115,00;115,50;0,4;2,0;LEFT;RIGHT;ANY;+50%;+50%
EO-02;UNI-BOX;ABSOLUTE;-;115,40;117,10;2,3;3,3;ANY;ABOVE;ANY;+50%;+50%
EO-03;OFF
EO-04;OFF

























Switch signal settings;Channel;Threshold at;;Trigger from;Reference;Latch until
Type S1;OFF
Type S2;OFF

















Device information
Device type;maXYmos BL
Device type number;5867B1011
Device serial number;5182443
Firmware version;2.3.2 (r22473-BL_v2.3.x)
-
-
-
-
-
IP Address;10.0.0.18
Network name;OP10
Profibus address;10
-
-
-
Station name;OP10
Company name;
Comment;











Channel-X settings
Use the settings from global setup;True
Sensor-X type;Â±10V
Unit;mm
Used range from;0,00;mm
Used range to;200,00;mm
Decimal places;XXXX.XX
Scaling by;Teach-In
Point 1;0,00;mm;-0,350;%
Point 2;200,00;mm;10,000;%
Invert signal;FALSE
Filter;20 Hz
Test point;0,00;mm
Tolerance;2,00;mm
Enable sensor test by dig-input;FALSE
Zoom from;100,00;mm
Zoom to;120,00;mm























Channel-Y settings
Use the settings from global setup;True
Sensor-Y type;Strain Gage
Unit;kN
Used range from;0,0;kN
Used range to;20,0;kN
Decimal places;XXXXX.X
Scaling by;Teach-In
Point 1;0,0;kN;-0,01562;%
Point 2;20,0;kN;2,00000;%
Invert signal;FALSE
Filter;1 Hz
Piezo reset;-
Test point;0,0;kN
Tolerance;0,1;kN
Enable sensor test by dig-input;FALSE
Zoom from;0,0;kN
Zoom to;5,0;kN












Cycle control settings
Use the settings from global setup;True
Measuring function;Y (X)
Delta-X;Automatic
START condition;Dig-Input
STOP condition;Dig-Input
Cycle time out;20,00;s
Turning point RIGHT;YMAX
Turning point LEFT;NONE
Cut curve at;NONE










Evaluation settings
Capture only first NOK-EO for statistics;False
Hysteresis-X;0,0;%
Hysteresis-Y;100,0;%






Trigger Y settings
Threshold;1,8;kN
Value X at TRIGGER Y;0,00;mm
Approach from;BELOW






Block settings
Value X at block;XMAX
Block at;0,00;mm







Measuring curve
Number of measuring points;285
Ref. Graph on;ABSOLUTE
Curve segments;0;284;283;285;


Time;X(ABSOLUTE);Y;X (ABSOLUTE)


s;mm;kN;mm
0,0000;-0,03222;-0,03574;-0,03222
0,1165;0,36796;-0,03573;0,36796
0,1195;0,76987;-0,03573;0,76987
0,1216;1,17237;-0,03572;1,17237
0,1233;1,58662;-0,03572;1,58662
0,1248;2,01892;-0,03572;2,01892
0,1261;2,44191;-0,03571;2,44191
0,1274;2,89806;-0,03570;2,89806
0,1285;3,30801;-0,03570;3,30801
0,1296;3,72936;-0,03568;3,72936
0,1308;4,15689;-0,03568;4,15689
0,1319;4,58686;-0,03567;4,58686
0,1330;5,01589;-0,03565;5,01589
0,1341;5,44144;-0,03565;5,44144
0,1353;5,86151;-0,03562;5,86151
0,1364;6,27484;-0,03562;6,27484
0,1375;6,68118;-0,03560;6,68118
0,1388;7,14699;-0,03558;7,14699
0,1401;7,60548;-0,03558;7,60548
0,1415;8,05849;-0,03554;8,05849
0,1428;8,50790;-0,03551;8,50790
0,1441;8,95498;-0,03551;8,95498
0,1454;9,40113;-0,03547;9,40113
0,1467;9,84774;-0,03543;9,84774
0,1480;10,29621;-0,03537;10,29621
0,1493;10,74713;-0,03537;10,74713
0,1507;11,20131;-0,03533;11,20131
0,1520;11,65875;-0,03526;11,65875
0,1533;12,11921;-0,03526;12,11921
0,1546;12,58270;-0,03521;12,58270
0,1559;13,04852;-0,03513;13,04852
0,1570;13,44927;-0,03513;13,44927
0,1582;13,85096;-0,03506;13,85096
0,1593;14,25311;-0,03498;14,25311
0,1604;14,65514;-0,03498;14,65514
0,1616;15,05682;-0,03490;15,05682
0,1627;15,45758;-0,03490;15,45758
0,1640;15,92328;-0,03481;15,92328
0,1653;16,38642;-0,03472;16,38642
0,1666;16,84630;-0,03472;16,84630
0,1679;17,30257;-0,03461;17,30257
0,1692;17,75501;-0,03450;17,75501
0,1706;18,20313;-0,03439;18,20313
0,1719;18,64695;-0,03439;18,64695
0,1732;19,08623;-0,03427;19,08623
0,1745;19,52109;-0,03414;19,52109
0,1758;19,95140;-0,03414;19,95140
0,1771;20,37718;-0,03401;20,37718
0,1784;20,79830;-0,03387;20,79830
0,1798;21,21465;-0,03387;21,21465
0,1811;21,62623;-0,03373;21,62623
0,1824;22,03269;-0,03358;22,03269
0,1837;22,43437;-0,03342;22,43437
0,1852;22,88727;-0,03342;22,88727
0,1867;23,33377;-0,03325;23,33377
0,1882;23,77386;-0,03309;23,77386
0,1897;24,20767;-0,03291;24,20767
0,1912;24,63508;-0,03273;24,63508
0,1927;25,05620;-0,03273;25,05620
0,1942;25,47092;-0,03254;25,47092
0,1957;25,87935;-0,03234;25,87935
0,1972;26,28162;-0,03213;26,28162
0,1989;26,72707;-0,03193;26,72707
0,2006;27,16530;-0,03171;27,16530
0,2023;27,59666;-0,03171;27,59666
0,2040;28,02128;-0,03149;28,02128
0,2057;28,43937;-0,03125;28,43937
0,2074;28,85130;-0,03102;28,85130
0,2090;29,25717;-0,03078;29,25717
0,2107;29,65735;-0,03053;29,65735
0,2126;30,09616;-0,03027;30,09616
0,2145;30,52939;-0,03001;30,52939
0,2164;30,95761;-0,02974;30,95761
0,2182;31,38152;-0,02947;31,38152
0,2201;31,80137;-0,02919;31,80137
0,2220;32,21760;-0,02890;32,21760
0,2239;32,63069;-0,02861;32,63069
0,2258;33,04099;-0,02831;33,04099
0,2276;33,44896;-0,02800;33,44896
0,2295;33,85483;-0,02769;33,85483
0,2314;34,25884;-0,02738;34,25884
0,2333;34,66122;-0,02705;34,66122
0,2351;35,06244;-0,02672;35,06244
0,2370;35,46261;-0,02638;35,46261
0,2391;35,90178;-0,02604;35,90178
0,2412;36,34024;-0,02569;36,34024
0,2432;36,77812;-0,02534;36,77812
0,2453;37,21601;-0,02498;37,21601
0,2473;37,65401;-0,02462;37,65401
0,2494;38,09212;-0,02387;38,09212
0,2515;38,53070;-0,02348;38,53070
0,2535;38,96998;-0,02309;38,96998
0,2554;39,37004;-0,02269;39,37004
0,2573;39,77102;-0,02229;39,77102
0,2592;40,17306;-0,02189;40,17306
0,2611;40,57637;-0,02148;40,57637
0,2629;40,98096;-0,02106;40,98096
0,2648;41,38684;-0,02064;41,38684
0,2667;41,79422;-0,02021;41,79422
0,2686;42,20312;-0,01978;42,20312
0,2704;42,61342;-0,01934;42,61342
0,2723;43,02523;-0,01890;43,02523
0,2742;43,43855;-0,01844;43,43855
0,2761;43,85293;-0,01799;43,85293
0,2779;44,26846;-0,01754;44,26846
0,2798;44,68458;-0,01706;44,68458
0,2817;45,10139;-0,01660;45,10139
0,2836;45,51867;-0,01613;45,51867
0,2855;45,93642;-0,01565;45,93642
0,2873;46,35452;-0,01517;46,35452
0,2892;46,77273;-0,01467;46,77273
0,2911;47,19082;-0,01417;47,19082
0,2930;47,60857;-0,01368;47,60857
0,2948;48,02597;-0,01318;48,02597
0,2967;48,44278;-0,01268;48,44278
0,2986;48,85902;-0,01217;48,85902
0,3005;49,27443;-0,01165;49,27443
0,3024;49,68904;-0,01113;49,68904
0,3042;50,10248;-0,01060;50,10248
0,3061;50,51452;-0,01007;50,51452
0,3080;50,92528;-0,00955;50,92528
0,3099;51,33465;-0,00901;51,33465
0,3117;51,74273;-0,00847;51,74273
0,3136;52,14954;-0,00793;52,14954
0,3155;52,55506;-0,00738;52,55506
0,3174;52,95919;-0,00683;52,95919
0,3193;53,36192;-0,00628;53,36192
0,3211;53,76314;-0,00572;53,76314
0,3232;54,20289;-0,00517;54,20289
0,3253;54,64077;-0,00460;54,64077
0,3273;55,07702;-0,00404;55,07702
0,3294;55,51165;-0,00346;55,51165
0,3315;55,94441;-0,00290;55,94441
0,3335;56,37531;-0,00233;56,37531
0,3356;56,80423;-0,00174;56,80423
0,3377;57,23105;-0,00059;57,23105
0,3397;57,65590;0,00000;57,65590
0,3418;58,07888;0,00059;58,07888
0,3438;58,50001;0,00117;58,50001
0,3459;58,91938;0,00177;58,91938
0,3480;59,33701;0,00236;59,33701
0,3500;59,75290;0,00296;59,75290
0,3521;60,16727;0,00355;60,16727
0,3542;60,57989;0,00415;60,57989
0,3562;60,99100;0,00476;60,99100
0,3583;61,40049;0,00596;61,40049
0,3604;61,80857;0,00656;61,80857
0,3624;62,21503;0,00717;62,21503
0,3645;62,61985;0,00778;62,61985
0,3666;63,02317;0,00838;63,02317
0,3686;63,42474;0,00900;63,42474
0,3707;63,82479;0,00961;63,82479
0,3729;64,25965;0,01022;64,25965
0,3752;64,69287;0,01145;64,69287
0,3775;65,12482;0,01206;65,12482
0,3797;65,55514;0,01267;65,55514
0,3820;65,98382;0,01329;65,98382
0,3842;66,41088;0,01390;66,41088
0,3865;66,83631;0,01513;66,83631
0,3887;67,26034;0,01575;67,26034
0,3910;67,68309;0,01636;67,68309
0,3932;68,10457;0,01698;68,10457
0,3955;68,52499;0,01759;68,52499
0,3977;68,94425;0,01883;68,94425
0,4000;69,36234;0,01945;69,36234
0,4022;69,77951;0,02006;69,77951
0,4045;70,19574;0,02067;70,19574
0,4067;70,61093;0,02129;70,61093
0,4090;71,02495;0,02251;71,02495
0,4112;71,43781;0,02312;71,43781
0,4135;71,84927;0,02373;71,84927
0,4158;72,25933;0,02434;72,25933
0,4180;72,66812;0,02494;72,66812
0,4203;73,07562;0,02617;73,07562
0,4225;73,48196;0,02677;73,48196
0,4248;73,88725;0,02737;73,88725
0,4270;74,29150;0,02797;74,29150
0,4293;74,69504;0,02857;74,69504
0,4315;75,09777;0,02978;75,09777
0,4338;75,49969;0,03037;75,49969
0,4360;75,90056;0,03097;75,90056
0,4383;76,30061;0,03156;76,30061
0,4407;76,73291;0,03216;76,73291
0,4432;77,16404;0,03333;77,16404
0,4456;77,59401;0,03392;77,59401
0,4480;78,02246;0,03451;78,02246
0,4505;78,44941;0,03567;78,44941
0,4529;78,87495;0,03625;78,87495
0,4554;79,29910;0,03683;79,29910
0,4578;79,72197;0,03798;79,72197
0,4602;80,14367;0,03855;80,14367
0,4627;80,56398;0,03912;80,56398
0,4651;80,98277;0,03968;80,98277
0,4676;81,39994;0,04081;81,39994
0,4700;81,81559;0,04138;81,81559
0,4724;82,22973;0,04193;82,22973
0,4749;82,64258;0,04303;82,64258
0,4773;83,05428;0,04359;83,05428
0,4798;83,46516;0,04413;83,46516
0,4822;83,87476;0,04523;83,87476
0,4847;84,28319;0,04576;84,28319
0,4871;84,69046;0,04630;84,69046
0,4895;85,09680;0,04684;85,09680
0,4920;85,50256;0,04790;85,50256
0,4944;85,90797;0,04843;85,90797
0,4969;86,31314;0,04896;86,31314
0,4993;86,71774;0,04999;86,71774
0,5017;87,12175;0,05051;87,12175
0,5042;87,52471;0,05103;87,52471
0,5066;87,92640;0,05205;87,92640
0,5091;88,32703;0,05256;88,32703
0,5117;88,75723;0,05306;88,75723
0,5143;89,18639;0,05406;89,18639
0,5169;89,61472;0,05456;89,61472
0,5196;90,04236;0,05505;90,04236
0,5222;90,46942;0,05602;90,46942
0,5248;90,89625;0,05651;90,89625
0,5275;91,32307;0,05746;91,32307
0,5301;91,74978;0,05795;91,74978
0,5327;92,17649;0,05842;92,17649
0,5353;92,60285;0,05935;92,60285
0,5380;93,02898;0,05982;93,02898
0,5406;93,45441;0,06074;93,45441
0,5432;93,87890;0,06119;93,87890
0,5459;94,30270;0,06165;94,30270
0,5485;94,72569;0,06255;94,72569
0,5511;95,14797;0,06299;95,14797
0,5537;95,56944;0,06387;95,56944
0,5564;95,99010;0,06431;95,99010
0,5590;96,40994;0,06474;96,40994
0,5616;96,82908;0,06560;96,82908
0,5643;97,24765;0,06603;97,24765
0,5669;97,66574;0,06687;97,66574
0,5695;98,08326;0,06729;98,08326
0,5721;98,50030;0,06770;98,50030
0,5748;98,91665;0,06853;98,91665
0,5774;99,33230;0,06893;99,33230
0,5800;99,74691;0,06974;99,74691
0,5827;100,16046;0,07014;100,16046
0,5853;100,57286;0,07053;100,57286
0,5879;100,98432;0,07131;100,98432
0,5905;101,39485;0,07170;101,39485
0,5932;101,80445;0,07247;101,80445
0,5958;102,21323;0,07285;102,21323
0,5984;102,62097;0,07323;102,62097
0,6011;103,02789;0,07397;103,02789
0,6037;103,43411;0,07434;103,43411
0,6063;103,83975;0,07507;103,83975
0,6089;104,24516;0,07543;104,24516
0,6116;104,65034;0,07579;104,65034
0,6142;105,05528;0,07651;105,05528
0,6168;105,45952;0,07686;105,45952
0,6194;105,86225;0,07755;105,86225
0,6221;106,26289;0,07790;106,26289
0,6249;106,68809;0,07858;106,68809
0,6277;107,10560;0,07892;107,10560
0,6305;107,51194;0,07959;107,51194
0,6335;107,92934;0,07992;107,92934
0,6367;108,34941;0,08058;108,34941
0,6401;108,75854;0,08123;108,75854
0,6440;109,17454;0,08187;109,17454
0,6489;109,57751;0,08250;109,57751
0,6579;109,98164;0,08407;109,98164
0,7188;110,38600;0,09546;110,38600
0,7285;110,79222;0,09770;110,79222
0,7355;111,20194;0,09915;111,20194
0,7415;111,61188;0,10122;111,61188
0,7471;112,01939;0,10289;112,01939
0,7527;112,42061;0,10466;112,42061
0,7601;112,82625;0,10718;112,82625
1,1924;113,22630;0,61640;113,22630
1,2014;113,62857;0,62757;113,62857
1,2060;114,03630;0,63197;114,03630
1,2101;114,43997;0,63631;114,43997
1,2144;114,85655;0,64276;114,85655
1,2191;115,26638;0,64701;115,26638
1,2257;115,67062;0,65545;115,67062
1,4040;116,02400;1,26479;116,02400
1,4641;116,04309;1,86630;116,04309
1,5110;116,05683;2,48027;116,05683
1,5523;116,06486;3,09362;116,06486
1,5918;116,07533;3,71521;116,07533
1,6293;116,08383;4,31801;116,08383
1,6518;116,08872;4,67734;116,08872
1,6520;116,08884;4,67734;116,08884
