Part protocol
Network name;Part_OP10_MP-002_2020-08-26_16-20-44_0039_OK.csv
Protocol version;2.01.00

Index;Result information;Process values - curve related;Process values - EO related;Evaluation objects settings;Switch signal settings;Device information;Channel-X settings;Channel-Y settings;Cycle control settings;Evaluation settings;Trigger Y settings;Block settings;Measuring curve;Measuring points;Sequence;
Line;10;30;40;70;100;120;150;190;220;240;250;260;270;280;570;



Result information
Date;2020/08/26
Time;16:20:44
Cycle number;39
Total result;OK
Triggered switch signals
Part serial number;0039
Measuring program name;D57-Right
Measuring program number;2
Zero X offset;0,00;mm
Tara Y offset;0,0;kN









Process values - curve related
Block X;116,04;mm;XMIN-X;-0,02;mm
Block Y;4,7;kN;XMIN-Y;0,0;kN
Ref X;-;mm;XMAX-X;116,04;mm
Peak-peak X;116,06;mm;XMAX-Y;4,7;kN
Peak-peak Y;4,8;kN;YMIN-X;0,40;mm
;;;YMIN-Y;0,0;kN
;;;YMAX-X;116,04;mm
;;;YMAX-Y;4,7;kN

Process values - EO related;Result;Entry;Exit;XMIN-X;XMIN-Y;XMAX-X;XMAX-Y;YMIN-Y;YMIN-X;YMAX-Y;YMAX-X
;;;;mm;kN;mm;kN;kN;mm;kN;mm
EO-01;OK;0,7;0,7;;;;;0,7;115,00;0,7;115,25;;;;;;
EO-02;OK;;116,02;116,00;2,3;116,02;3,2;2,3;116,00;;;;;;;;
EO-03;None;
EO-04;None;
























Evaluation objects settings;Reaction;X reference;Y-Reference;XMin;XMax;YMin;YMax;Entry;Exit;Curve part;Catch zone X;Catch zone Y
EO-01;UNI-BOX;ABSOLUTE;-;115,00;115,50;0,4;2,0;LEFT;RIGHT;ANY;+50%;+50%
EO-02;UNI-BOX;ABSOLUTE;-;115,40;117,10;2,3;3,3;ANY;ABOVE;ANY;+50%;+50%
EO-03;OFF
EO-04;OFF

























Switch signal settings;Channel;Threshold at;;Trigger from;Reference;Latch until
Type S1;OFF
Type S2;OFF

















Device information
Device type;maXYmos BL
Device type number;5867B1011
Device serial number;5182443
Firmware version;2.3.2 (r22473-BL_v2.3.x)
-
-
-
-
-
IP Address;10.0.0.18
Network name;OP10
Profibus address;10
-
-
-
Station name;OP10
Company name;
Comment;











Channel-X settings
Use the settings from global setup;True
Sensor-X type;Â±10V
Unit;mm
Used range from;0,00;mm
Used range to;200,00;mm
Decimal places;XXXX.XX
Scaling by;Teach-In
Point 1;0,00;mm;-0,350;%
Point 2;200,00;mm;10,000;%
Invert signal;FALSE
Filter;20 Hz
Test point;0,00;mm
Tolerance;2,00;mm
Enable sensor test by dig-input;FALSE
Zoom from;100,00;mm
Zoom to;120,00;mm























Channel-Y settings
Use the settings from global setup;True
Sensor-Y type;Strain Gage
Unit;kN
Used range from;0,0;kN
Used range to;20,0;kN
Decimal places;XXXXX.X
Scaling by;Teach-In
Point 1;0,0;kN;-0,01562;%
Point 2;20,0;kN;2,00000;%
Invert signal;FALSE
Filter;1 Hz
Piezo reset;-
Test point;0,0;kN
Tolerance;0,1;kN
Enable sensor test by dig-input;FALSE
Zoom from;0,0;kN
Zoom to;5,0;kN












Cycle control settings
Use the settings from global setup;True
Measuring function;Y (X)
Delta-X;Automatic
START condition;Dig-Input
STOP condition;Dig-Input
Cycle time out;20,00;s
Turning point RIGHT;YMAX
Turning point LEFT;NONE
Cut curve at;NONE










Evaluation settings
Capture only first NOK-EO for statistics;False
Hysteresis-X;0,0;%
Hysteresis-Y;100,0;%






Trigger Y settings
Threshold;1,8;kN
Value X at TRIGGER Y;0,00;mm
Approach from;BELOW






Block settings
Value X at block;XMAX
Block at;0,00;mm







Measuring curve
Number of measuring points;286
Ref. Graph on;ABSOLUTE
Curve segments;0;285;284;286;


Time;X(ABSOLUTE);Y;X (ABSOLUTE)


s;mm;kN;mm
0,0000;-0,02104;-0,03490;-0,02104
0,1133;0,39519;-0,03497;0,39519
0,1165;0,81690;-0,03496;0,81690
0,1188;1,24640;-0,03496;1,24640
0,1207;1,69476;-0,03495;1,69476
0,1222;2,11204;-0,03495;2,11204
0,1235;2,51547;-0,03495;2,51547
0,1248;2,94695;-0,03494;2,94695
0,1261;3,39787;-0,03493;3,39787
0,1274;3,85961;-0,03493;3,85961
0,1287;4,32520;-0,03492;4,32520
0,1301;4,78997;-0,03490;4,78997
0,1314;5,25020;-0,03488;5,25020
0,1327;5,70298;-0,03488;5,70298
0,1340;6,14599;-0,03486;6,14599
0,1353;6,57840;-0,03485;6,57840
0,1366;7,00045;-0,03485;7,00045
0,1379;7,41354;-0,03482;7,41354
0,1393;7,81953;-0,03479;7,81953
0,1406;8,22005;-0,03479;8,22005
0,1421;8,67283;-0,03476;8,67283
0,1436;9,12224;-0,03473;9,12224
0,1451;9,57013;-0,03469;9,57013
0,1466;10,01861;-0,03465;10,01861
0,1481;10,46906;-0,03465;10,46906
0,1496;10,92219;-0,03460;10,92219
0,1511;11,37847;-0,03455;11,37847
0,1524;11,78003;-0,03449;11,78003
0,1537;12,18335;-0,03449;12,18335
0,1550;12,58771;-0,03444;12,58771
0,1563;12,99265;-0,03437;12,99265
0,1577;13,39759;-0,03431;13,39759
0,1590;13,80172;-0,03431;13,80172
0,1603;14,20469;-0,03423;14,20469
0,1616;14,60590;-0,03415;14,60590
0,1631;15,06160;-0,03415;15,06160
0,1646;15,51345;-0,03407;15,51345
0,1661;15,96076;-0,03398;15,96076
0,1676;16,40295;-0,03389;16,40295
0,1691;16,83978;-0,03379;16,83978
0,1706;17,27091;-0,03379;17,27091
0,1721;17,69611;-0,03369;17,69611
0,1736;18,11537;-0,03358;18,11537
0,1751;18,52893;-0,03346;18,52893
0,1766;18,93678;-0,03334;18,93678
0,1781;19,33916;-0,03334;19,33916
0,1798;19,78554;-0,03321;19,78554
0,1815;20,22563;-0,03308;20,22563
0,1832;20,66026;-0,03294;20,66026
0,1849;21,08964;-0,03280;21,08964
0,1866;21,51437;-0,03264;21,51437
0,1883;21,93445;-0,03249;21,93445
0,1899;22,35010;-0,03233;22,35010
0,1916;22,76121;-0,03216;22,76121
0,1933;23,16790;-0,03199;23,16790
0,1950;23,57040;-0,03199;23,57040
0,1969;24,01282;-0,03181;24,01282
0,1988;24,45036;-0,03162;24,45036
0,2006;24,88323;-0,03143;24,88323
0,2025;25,31146;-0,03123;25,31146
0,2044;25,73549;-0,03102;25,73549
0,2063;26,15533;-0,03082;26,15533
0,2082;26,57145;-0,03060;26,57145
0,2100;26,98465;-0,03037;26,98465
0,2119;27,39530;-0,03014;27,39530
0,2138;27,80385;-0,02991;27,80385
0,2157;28,21066;-0,02967;28,21066
0,2175;28,61595;-0,02942;28,61595
0,2194;29,01961;-0,02917;29,01961
0,2213;29,42176;-0,02891;29,42176
0,2232;29,82274;-0,02864;29,82274
0,2252;30,26261;-0,02809;30,26261
0,2273;30,70177;-0,02781;30,70177
0,2294;31,14035;-0,02751;31,14035
0,2314;31,57858;-0,02722;31,57858
0,2335;32,01635;-0,02691;32,01635
0,2356;32,45377;-0,02661;32,45377
0,2376;32,89107;-0,02629;32,89107
0,2397;33,32825;-0,02597;33,32825
0,2418;33,76579;-0,02564;33,76579
0,2438;34,20390;-0,02531;34,20390
0,2459;34,64260;-0,02463;34,64260
0,2480;35,08200;-0,02427;35,08200
0,2500;35,52186;-0,02391;35,52186
0,2519;35,92215;-0,02355;35,92215
0,2538;36,32266;-0,02318;36,32266
0,2557;36,72365;-0,02281;36,72365
0,2575;37,12487;-0,02242;37,12487
0,2594;37,52644;-0,02204;37,52644
0,2613;37,92812;-0,02165;37,92812
0,2632;38,33004;-0,02125;38,33004
0,2650;38,73219;-0,02085;38,73219
0,2669;39,13457;-0,02044;39,13457
0,2688;39,53718;-0,02003;39,53718
0,2707;39,94026;-0,01961;39,94026
0,2726;40,34358;-0,01918;40,34358
0,2744;40,74701;-0,01875;40,74701
0,2763;41,15055;-0,01831;41,15055
0,2782;41,55410;-0,01788;41,55410
0,2801;41,95741;-0,01743;41,95741
0,2819;42,36061;-0,01698;42,36061
0,2838;42,76346;-0,01653;42,76346
0,2857;43,16595;-0,01606;43,16595
0,2876;43,56775;-0,01560;43,56775
0,2894;43,96897;-0,01513;43,96897
0,2913;44,36914;-0,01465;44,36914
0,2934;44,80819;-0,01417;44,80819
0,2955;45,24549;-0,01368;45,24549
0,2975;45,68105;-0,01320;45,68105
0,2996;46,11486;-0,01270;46,11486
0,3017;46,54692;-0,01221;46,54692
0,3037;46,97712;-0,01170;46,97712
0,3058;47,40534;-0,01120;47,40534
0,3078;47,83158;-0,01018;47,83158
0,3099;48,25573;-0,00966;48,25573
0,3120;48,67790;-0,00914;48,67790
0,3140;49,09809;-0,00861;49,09809
0,3161;49,51665;-0,00808;49,51665
0,3182;49,93335;-0,00756;49,93335
0,3202;50,34842;-0,00702;50,34842
0,3223;50,76163;-0,00647;50,76163
0,3244;51,17309;-0,00594;51,17309
0,3264;51,58292;-0,00539;51,58292
0,3285;51,99112;-0,00429;51,99112
0,3306;52,39781;-0,00373;52,39781
0,3326;52,80299;-0,00318;52,80299
0,3347;53,20642;-0,00261;53,20642
0,3368;53,60799;-0,00206;53,60799
0,3390;54,04401;-0,00149;54,04401
0,3413;54,47816;-0,00092;54,47816
0,3435;54,91081;0,00022;54,91081
0,3458;55,34206;0,00079;55,34206
0,3480;55,77203;0,00137;55,77203
0,3503;56,20060;0,00195;56,20060
0,3525;56,62754;0,00253;56,62754
0,3548;57,05297;0,00370;57,05297
0,3570;57,47677;0,00428;57,47677
0,3593;57,89905;0,00487;57,89905
0,3615;58,32029;0,00546;58,32029
0,3638;58,74025;0,00605;58,74025
0,3660;59,15928;0,00723;59,15928
0,3683;59,57725;0,00783;59,57725
0,3706;59,99430;0,00842;59,99430
0,3728;60,41030;0,00901;60,41030
0,3751;60,82549;0,00961;60,82549
0,3773;61,24021;0,01080;61,24021
0,3796;61,65458;0,01140;61,65458
0,3818;62,06849;0,01200;62,06849
0,3841;62,48192;0,01260;62,48192
0,3863;62,89478;0,01320;62,89478
0,3886;63,30694;0,01440;63,30694
0,3908;63,71817;0,01500;63,71817
0,3931;64,12870;0,01560;64,12870
0,3953;64,53865;0,01620;64,53865
0,3976;64,94801;0,01680;64,94801
0,3998;65,35691;0,01799;65,35691
0,4021;65,76535;0,01859;65,76535
0,4043;66,17297;0,01920;66,17297
0,4066;66,58012;0,01979;66,58012
0,4089;66,98670;0,02039;66,98670
0,4111;67,39257;0,02158;67,39257
0,4134;67,79798;0,02218;67,79798
0,4156;68,20292;0,02278;68,20292
0,4179;68,60728;0,02337;68,60728
0,4201;69,01118;0,02396;69,01118
0,4224;69,41449;0,02515;69,41449
0,4246;69,81711;0,02573;69,81711
0,4269;70,21879;0,02632;70,21879
0,4291;70,61966;0,02691;70,61966
0,4316;71,05277;0,02750;71,05277
0,4340;71,48483;0,02867;71,48483
0,4364;71,91585;0,02925;71,91585
0,4389;72,34605;0,02983;72,34605
0,4413;72,77532;0,03099;72,77532
0,4438;73,20366;0,03156;73,20366
0,4462;73,63118;0,03214;73,63118
0,4487;74,05766;0,03328;74,05766
0,4511;74,48274;0,03385;74,48274
0,4535;74,90630;0,03441;74,90630
0,4560;75,32789;0,03498;75,32789
0,4584;75,74738;0,03611;75,74738
0,4609;76,16501;0,03666;76,16501
0,4633;76,58066;0,03722;76,58066
0,4657;76,99457;0,03833;76,99457
0,4682;77,40684;0,03888;77,40684
0,4706;77,81749;0,03942;77,81749
0,4731;78,22627;0,04051;78,22627
0,4755;78,63343;0,04106;78,63343
0,4779;79,03919;0,04160;79,03919
0,4804;79,44366;0,04213;79,44366
0,4828;79,84698;0,04320;79,84698
0,4853;80,24889;0,04373;80,24889
0,4877;80,64918;0,04425;80,64918
0,4903;81,07868;0,04530;81,07868
0,4930;81,50621;0,04582;81,50621
0,4956;81,93163;0,04685;81,93163
0,4982;82,35543;0,04736;82,35543
0,5008;82,77749;0,04786;82,77749
0,5035;83,19803;0,04887;83,19803
0,5061;83,61729;0,04937;83,61729
0,5087;84,03527;0,05036;84,03527
0,5114;84,45220;0,05085;84,45220
0,5140;84,86843;0,05135;84,86843
0,5166;85,28420;0,05232;85,28420
0,5192;85,69997;0,05280;85,69997
0,5219;86,11573;0,05375;86,11573
0,5245;86,53150;0,05422;86,53150
0,5271;86,94692;0,05469;86,94692
0,5298;87,36152;0,05562;87,36152
0,5324;87,77520;0,05609;87,77520
0,5350;88,18794;0,05699;88,18794
0,5376;88,59975;0,05745;88,59975
0,5403;89,01086;0,05790;89,01086
0,5429;89,42139;0,05879;89,42139
0,5455;89,83145;0,05923;89,83145
0,5482;90,24094;0,06010;90,24094
0,5508;90,64960;0,06054;90,64960
0,5534;91,05722;0,06096;91,05722
0,5560;91,46345;0,06182;91,46345
0,5587;91,86874;0,06224;91,86874
0,5613;92,27322;0,06307;92,27322
0,5639;92,67699;0,06349;92,67699
0,5666;93,07996;0,06390;93,07996
0,5692;93,48211;0,06471;93,48211
0,5718;93,88356;0,06511;93,88356
0,5744;94,28408;0,06591;94,28408
0,5773;94,71230;0,06630;94,71230
0,5801;95,13959;0,06708;95,13959
0,5829;95,56572;0,06747;95,56572
0,5857;95,99080;0,06823;95,99080
0,5885;96,41460;0,06861;96,41460
0,5913;96,83735;0,06936;96,83735
0,5942;97,25917;0,06973;97,25917
0,5970;97,68017;0,07046;97,68017
0,5998;98,10037;0,07082;98,10037
0,6026;98,51974;0,07154;98,51974
0,6054;98,93854;0,07190;98,93854
0,6082;99,35651;0,07260;99,35651
0,6110;99,77321;0,07294;99,77321
0,6139;100,18828;0,07363;100,18828
0,6167;100,60137;0,07397;100,60137
0,6195;101,01249;0,07465;101,01249
0,6223;101,42197;0,07498;101,42197
0,6251;101,82994;0,07564;101,82994
0,6279;102,23674;0,07596;102,23674
0,6308;102,64296;0,07660;102,64296
0,6336;103,04849;0,07692;103,04849
0,6364;103,45355;0,07755;103,45355
0,6392;103,85861;0,07786;103,85861
0,6420;104,26378;0,07848;104,26378
0,6448;104,66942;0,07878;104,66942
0,6477;105,07518;0,07938;105,07518
0,6505;105,48094;0,07968;105,48094
0,6533;105,88635;0,08027;105,88635
0,6561;106,29083;0,08057;106,29083
0,6589;106,69332;0,08114;106,69332
0,6619;107,11747;0,08143;107,11747
0,6649;107,53231;0,08200;107,53231
0,6679;107,93457;0,08228;107,93457
0,6711;108,34522;0,08284;108,34522
0,6745;108,75622;0,08338;108,75622
0,6783;109,17489;0,08393;109,17489
0,6824;109,57565;0,08447;109,57565
0,6878;109,98653;0,08527;109,98653
0,6983;110,38751;0,08685;110,38751
0,7552;110,79210;0,09592;110,79210
0,7639;111,19274;0,09749;111,19274
0,7699;111,59477;0,09920;111,59477
0,7749;111,99588;0,10012;111,99588
0,7800;112,40629;0,10157;112,40629
0,7866;112,81472;0,10366;112,81472
1,2593;113,21804;0,66204;113,21804
1,2663;113,62123;0,67059;113,62123
1,2708;114,03304;0,67480;114,03304
1,2749;114,44043;0,68101;114,44043
1,2790;114,84444;0,68509;114,84444
1,2837;115,25230;0,68914;115,25230
1,2909;115,65747;0,69712;115,65747
1,4793;115,97128;1,31004;115,97128
1,5432;115,99688;1,92484;115,99688
1,5920;116,00724;2,53892;116,00724
1,6352;116,01981;3,15538;116,01981
1,6765;116,02738;3,78198;116,02738
1,7159;116,03564;4,39186;116,03564
1,7384;116,04170;4,73861;116,04170
1,7396;116,04181;4,73861;116,04181
