Part protocol
Network name;Part_OP10_MP-002_2020-08-25_16-09-09_0006_OK.csv
Protocol version;2.01.00

Index;Result information;Process values - curve related;Process values - EO related;Evaluation objects settings;Switch signal settings;Device information;Channel-X settings;Channel-Y settings;Cycle control settings;Evaluation settings;Trigger Y settings;Block settings;Measuring curve;Measuring points;Sequence;
Line;10;30;40;70;100;120;150;190;220;240;250;260;270;280;570;



Result information
Date;2020/08/25
Time;16:09:09
Cycle number;6
Total result;OK
Triggered switch signals
Part serial number;0006
Measuring program name;D57-Right
Measuring program number;2
Zero X offset;0,00;mm
Tara Y offset;0,0;kN









Process values - curve related
Block X;116,10;mm;XMIN-X;0,02;mm
Block Y;4,9;kN;XMIN-Y;0,0;kN
Ref X;-;mm;XMAX-X;116,10;mm
Peak-peak X;116,08;mm;XMAX-Y;4,9;kN
Peak-peak Y;4,9;kN;YMIN-X;0,44;mm
;;;YMIN-Y;0,0;kN
;;;YMAX-X;116,10;mm
;;;YMAX-Y;4,9;kN

Process values - EO related;Result;Entry;Exit;XMIN-X;XMIN-Y;XMAX-X;XMAX-Y;YMIN-Y;YMIN-X;YMAX-Y;YMAX-X
;;;;mm;kN;mm;kN;kN;mm;kN;mm
EO-01;OK;0,7;0,7;;;;;0,7;115,00;0,7;115,19;;;;;;
EO-02;OK;;116,08;116,06;2,3;116,08;3,2;2,3;116,06;;;;;;;;
EO-03;None;
EO-04;None;
























Evaluation objects settings;Reaction;X reference;Y-Reference;XMin;XMax;YMin;YMax;Entry;Exit;Curve part;Catch zone X;Catch zone Y
EO-01;UNI-BOX;ABSOLUTE;-;115,00;115,50;0,4;2,0;LEFT;RIGHT;ANY;+50%;+50%
EO-02;UNI-BOX;ABSOLUTE;-;115,40;117,10;2,3;3,3;ANY;ABOVE;ANY;+50%;+50%
EO-03;OFF
EO-04;OFF

























Switch signal settings;Channel;Threshold at;;Trigger from;Reference;Latch until
Type S1;OFF
Type S2;OFF

















Device information
Device type;maXYmos BL
Device type number;5867B1011
Device serial number;5182443
Firmware version;2.3.2 (r22473-BL_v2.3.x)
-
-
-
-
-
IP Address;10.0.0.18
Network name;OP10
Profibus address;10
-
-
-
Station name;OP10
Company name;
Comment;











Channel-X settings
Use the settings from global setup;True
Sensor-X type;Â±10V
Unit;mm
Used range from;0,00;mm
Used range to;200,00;mm
Decimal places;XXXX.XX
Scaling by;Teach-In
Point 1;0,00;mm;-0,350;%
Point 2;200,00;mm;10,000;%
Invert signal;FALSE
Filter;20 Hz
Test point;0,00;mm
Tolerance;2,00;mm
Enable sensor test by dig-input;FALSE
Zoom from;100,00;mm
Zoom to;120,00;mm























Channel-Y settings
Use the settings from global setup;True
Sensor-Y type;Strain Gage
Unit;kN
Used range from;0,0;kN
Used range to;20,0;kN
Decimal places;XXXXX.X
Scaling by;Teach-In
Point 1;0,0;kN;-0,01562;%
Point 2;20,0;kN;2,00000;%
Invert signal;FALSE
Filter;1 Hz
Piezo reset;-
Test point;0,0;kN
Tolerance;0,1;kN
Enable sensor test by dig-input;FALSE
Zoom from;0,0;kN
Zoom to;5,0;kN












Cycle control settings
Use the settings from global setup;True
Measuring function;Y (X)
Delta-X;Automatic
START condition;Dig-Input
STOP condition;Dig-Input
Cycle time out;20,00;s
Turning point RIGHT;YMAX
Turning point LEFT;NONE
Cut curve at;NONE










Evaluation settings
Capture only first NOK-EO for statistics;False
Hysteresis-X;0,0;%
Hysteresis-Y;100,0;%






Trigger Y settings
Threshold;1,8;kN
Value X at TRIGGER Y;0,00;mm
Approach from;BELOW






Block settings
Value X at block;XMAX
Block at;0,00;mm







Measuring curve
Number of measuring points;287
Ref. Graph on;ABSOLUTE
Curve segments;0;286;285;287;


Time;X(ABSOLUTE);Y;X (ABSOLUTE)


s;mm;kN;mm
0,0000;0,02040;-0,04533;0,02040
0,1180;0,43756;-0,04535;0,43756
0,1210;0,84367;-0,04535;0,84367
0,1231;1,24489;-0,04534;1,24489
0,1248;1,65390;-0,04533;1,65390
0,1263;2,07817;-0,04532;2,07817
0,1276;2,49161;-0,04531;2,49161
0,1289;2,93671;-0,04531;2,93671
0,1302;3,40439;-0,04531;3,40439
0,1313;3,81666;-0,04530;3,81666
0,1325;4,23453;-0,04530;4,23453
0,1336;4,65437;-0,04528;4,65437
0,1347;5,07328;-0,04528;5,07328
0,1358;5,48870;-0,04526;5,48870
0,1370;5,89853;-0,04523;5,89853
0,1381;6,30126;-0,04523;6,30126
0,1394;6,76114;-0,04521;6,76114
0,1407;7,21090;-0,04519;7,21090
0,1420;7,65204;-0,04519;7,65204
0,1433;8,08596;-0,04515;8,08596
0,1447;8,51453;-0,04511;8,51453
0,1460;8,93892;-0,04511;8,93892
0,1473;9,36050;-0,04507;9,36050
0,1486;9,78081;-0,04504;9,78081
0,1499;10,20112;-0,04498;10,20112
0,1512;10,62247;-0,04498;10,62247
0,1525;11,04546;-0,04494;11,04546
0,1539;11,47030;-0,04488;11,47030
0,1552;11,89690;-0,04488;11,89690
0,1565;12,32488;-0,04482;12,32488
0,1578;12,75392;-0,04475;12,75392
0,1591;13,18331;-0,04475;13,18331
0,1604;13,61246;-0,04468;13,61246
0,1617;14,04080;-0,04460;14,04080
0,1631;14,46739;-0,04452;14,46739
0,1644;14,89154;-0,04452;14,89154
0,1657;15,31278;-0,04444;15,31278
0,1670;15,73018;-0,04434;15,73018
0,1683;16,14338;-0,04434;16,14338
0,1696;16,55193;-0,04424;16,55193
0,1709;16,95548;-0,04414;16,95548
0,1724;17,41036;-0,04404;17,41036
0,1739;17,85825;-0,04404;17,85825
0,1754;18,29916;-0,04392;18,29916
0,1769;18,73297;-0,04380;18,73297
0,1784;19,15968;-0,04368;19,15968
0,1799;19,57952;-0,04354;19,57952
0,1815;19,99273;-0,04354;19,99273
0,1830;20,39953;-0,04341;20,39953
0,1845;20,80028;-0,04326;20,80028
0,1861;21,24434;-0,04311;21,24434
0,1878;21,68152;-0,04295;21,68152
0,1895;22,11219;-0,04280;22,11219
0,1912;22,53657;-0,04263;22,53657
0,1929;22,95490;-0,04263;22,95490
0,1946;23,36717;-0,04245;23,36717
0,1963;23,77363;-0,04228;23,77363
0,1980;24,17438;-0,04209;24,17438
0,1998;24,61319;-0,04190;24,61319
0,2017;25,04572;-0,04170;25,04572
0,2036;25,47220;-0,04149;25,47220
0,2055;25,89320;-0,04129;25,89320
0,2074;26,30909;-0,04107;26,30909
0,2092;26,72043;-0,04084;26,72043
0,2111;27,12794;-0,04061;27,12794
0,2130;27,53195;-0,04038;27,53195
0,2149;27,93328;-0,04014;27,93328
0,2169;28,37233;-0,03989;28,37233
0,2190;28,80951;-0,03964;28,80951
0,2211;29,24554;-0,03938;29,24554
0,2231;29,68109;-0,03884;29,68109
0,2252;30,11653;-0,03857;30,11653
0,2273;30,55232;-0,03828;30,55232
0,2293;30,98892;-0,03798;30,98892
0,2314;31,42657;-0,03769;31,42657
0,2335;31,86527;-0,03739;31,86527
0,2355;32,30525;-0,03708;32,30525
0,2374;32,70646;-0,03676;32,70646
0,2393;33,10885;-0,03644;33,10885
0,2412;33,51251;-0,03611;33,51251
0,2430;33,91745;-0,03578;33,91745
0,2449;34,32379;-0,03544;34,32379
0,2468;34,73141;-0,03510;34,73141
0,2487;35,14043;-0,03474;35,14043
0,2505;35,55049;-0,03438;35,55049
0,2524;35,96184;-0,03402;35,96184
0,2543;36,37446;-0,03365;36,37446
0,2562;36,78837;-0,03328;36,78837
0,2580;37,20344;-0,03289;37,20344
0,2599;37,61979;-0,03251;37,61979
0,2618;38,03695;-0,03211;38,03695
0,2637;38,45481;-0,03172;38,45481
0,2656;38,87326;-0,03131;38,87326
0,2674;39,29205;-0,03090;39,29205
0,2693;39,71096;-0,03049;39,71096
0,2712;40,12999;-0,03007;40,12999
0,2731;40,54925;-0,02964;40,54925
0,2749;40,96839;-0,02921;40,96839
0,2768;41,38742;-0,02877;41,38742
0,2787;41,80598;-0,02833;41,80598
0,2806;42,22419;-0,02788;42,22419
0,2825;42,64159;-0,02743;42,64159
0,2843;43,05829;-0,02697;43,05829
0,2862;43,47406;-0,02650;43,47406
0,2881;43,88843;-0,02604;43,88843
0,2900;44,30140;-0,02557;44,30140
0,2918;44,71263;-0,02509;44,71263
0,2937;45,12211;-0,02461;45,12211
0,2956;45,52985;-0,02413;45,52985
0,2975;45,93572;-0,02363;45,93572
0,2994;46,33962;-0,02314;46,33962
0,3012;46,74153;-0,02264;46,74153
0,3033;47,18128;-0,02213;47,18128
0,3054;47,61823;-0,02162;47,61823
0,3074;48,05216;-0,02111;48,05216
0,3095;48,48317;-0,02007;48,48317
0,3116;48,91128;-0,01954;48,91128
0,3136;49,33659;-0,01902;49,33659
0,3157;49,75922;-0,01848;49,75922
0,3178;50,17918;-0,01795;50,17918
0,3198;50,59681;-0,01741;50,59681
0,3219;51,01211;-0,01687;51,01211
0,3239;51,42544;-0,01632;51,42544
0,3260;51,83678;-0,01577;51,83678
0,3281;52,24638;-0,01522;52,24638
0,3301;52,65435;-0,01410;52,65435
0,3322;53,06081;-0,01355;53,06081
0,3343;53,46575;-0,01298;53,46575
0,3363;53,86941;-0,01241;53,86941
0,3384;54,27179;-0,01184;54,27179
0,3405;54,67290;-0,01127;54,67290
0,3427;55,10892;-0,01069;55,10892
0,3450;55,54331;-0,01012;55,54331
0,3472;55,97607;-0,00896;55,97607
0,3495;56,40720;-0,00838;56,40720
0,3517;56,83647;-0,00779;56,83647
0,3540;57,26411;-0,00720;57,26411
0,3562;57,69012;-0,00661;57,69012
0,3585;58,11473;-0,00544;58,11473
0,3607;58,53818;-0,00484;58,53818
0,3630;58,96059;-0,00425;58,96059
0,3652;59,38194;-0,00365;59,38194
0,3675;59,80248;-0,00306;59,80248
0,3698;60,22221;-0,00185;60,22221
0,3720;60,64135;-0,00126;60,64135
0,3743;61,05991;-0,00066;61,05991
0,3765;61,47789;-0,00006;61,47789
0,3788;61,89517;0,00054;61,89517
0,3810;62,31199;0,00176;62,31199
0,3833;62,72810;0,00236;62,72810
0,3855;63,14329;0,00296;63,14329
0,3878;63,55743;0,00357;63,55743
0,3900;63,97075;0,00417;63,97075
0,3923;64,38291;0,00539;64,38291
0,3945;64,79414;0,00599;64,79414
0,3968;65,20420;0,00659;65,20420
0,3990;65,61287;0,00720;65,61287
0,4013;66,02026;0,00780;66,02026
0,4035;66,42613;0,00900;66,42613
0,4058;66,83072;0,00962;66,83072
0,4081;67,23415;0,01022;67,23415
0,4103;67,63642;0,01082;67,63642
0,4126;68,03775;0,01142;68,03775
0,4148;68,43793;0,01262;68,43793
0,4173;68,87022;0,01322;68,87022
0,4197;69,30100;0,01382;69,30100
0,4221;69,73027;0,01501;69,73027
0,4246;70,15826;0,01560;70,15826
0,4270;70,58509;0,01620;70,58509
0,4295;71,01075;0,01679;71,01075
0,4319;71,43501;0,01797;71,43501
0,4343;71,85788;0,01857;71,85788
0,4368;72,27947;0,01915;72,27947
0,4392;72,70013;0,02032;72,70013
0,4417;73,11985;0,02090;73,11985
0,4441;73,53899;0,02148;73,53899
0,4465;73,95756;0,02264;73,95756
0,4490;74,37600;0,02321;74,37600
0,4514;74,79398;0,02379;74,79398
0,4539;75,21149;0,02436;75,21149
0,4563;75,62877;0,02550;75,62877
0,4587;76,04582;0,02606;76,04582
0,4612;76,46275;0,02663;76,46275
0,4636;76,87969;0,02775;76,87969
0,4661;77,29662;0,02831;77,29662
0,4685;77,71320;0,02886;77,71320
0,4709;78,12920;0,02996;78,12920
0,4734;78,54439;0,03052;78,54439
0,4758;78,95876;0,03106;78,95876
0,4783;79,37220;0,03160;79,37220
0,4807;79,78436;0,03268;79,78436
0,4832;80,19547;0,03322;80,19547
0,4856;80,60542;0,03376;80,60542
0,4880;81,01373;0,03481;81,01373
0,4905;81,42054;0,03534;81,42054
0,4929;81,82595;0,03587;81,82595
0,4954;82,23008;0,03690;82,23008
0,4978;82,63304;0,03742;82,63304
0,5002;83,03472;0,03794;83,03472
0,5027;83,43536;0,03845;83,43536
0,5053;83,86556;0,03946;83,86556
0,5079;84,29448;0,03997;84,29448
0,5106;84,72212;0,04097;84,72212
0,5132;85,14860;0,04146;85,14860
0,5158;85,57403;0,04195;85,57403
0,5184;85,99864;0,04293;85,99864
0,5211;86,42255;0,04341;86,42255
0,5237;86,84554;0,04438;86,84554
0,5263;87,26736;0,04485;87,26736
0,5290;87,68778;0,04532;87,68778
0,5316;88,10658;0,04626;88,10658
0,5342;88,52362;0,04673;88,52362
0,5368;88,93904;0,04764;88,93904
0,5395;89,35318;0,04811;89,35318
0,5421;89,76592;0,04856;89,76592
0,5447;90,17703;0,04946;90,17703
0,5474;90,58617;0,04990;90,58617
0,5500;90,99379;0,05078;90,99379
0,5526;91,40001;0,05122;91,40001
0,5552;91,80565;0,05165;91,80565
0,5579;92,21094;0,05251;92,21094
0,5605;92,61577;0,05294;92,61577
0,5631;93,01978;0,05378;93,01978
0,5658;93,42298;0,05420;93,42298
0,5684;93,82478;0,05460;93,82478
0,5710;94,22507;0,05543;94,22507
0,5738;94,65271;0,05584;94,65271
0,5766;95,07883;0,05663;95,07883
0,5795;95,50380;0,05703;95,50380
0,5823;95,92760;0,05782;95,92760
0,5851;96,35000;0,05820;96,35000
0,5879;96,77135;0,05898;96,77135
0,5907;97,19189;0,05936;97,19189
0,5935;97,61185;0,06011;97,61185
0,5964;98,03111;0,06049;98,03111
0,5992;98,45014;0,06123;98,45014
0,6020;98,86858;0,06159;98,86858
0,6048;99,28644;0,06231;99,28644
0,6076;99,70314;0,06268;99,70314
0,6104;100,11879;0,06338;100,11879
0,6133;100,53351;0,06373;100,53351
0,6161;100,94742;0,06443;100,94742
0,6189;101,36051;0,06477;101,36051
0,6217;101,77279;0,06544;101,77279
0,6245;102,18401;0,06579;102,18401
0,6273;102,59419;0,06644;102,59419
0,6302;103,00310;0,06678;103,00310
0,6330;103,41072;0,06742;103,41072
0,6358;103,81752;0,06775;103,81752
0,6386;104,22386;0,06838;104,22386
0,6414;104,62985;0,06869;104,62985
0,6442;105,03584;0,06931;105,03584
0,6470;105,44195;0,06963;105,44195
0,6499;105,84817;0,07023;105,84817
0,6527;106,25428;0,07054;106,25428
0,6555;106,65899;0,07113;106,65899
0,6583;107,05916;0,07142;107,05916
0,6613;107,47656;0,07201;107,47656
0,6643;107,87998;0,07259;107,87998
0,6675;108,28842;0,07287;108,28842
0,6709;108,69034;0,07344;108,69034
0,6748;109,10680;0,07400;109,10680
0,6795;109,51000;0,07483;109,51000
0,6868;109,91517;0,07592;109,91517
0,7467;110,31686;0,08528;110,31686
0,7582;110,71994;0,08808;110,71994
0,7651;111,12442;0,08941;111,12442
0,7710;111,52994;0,09083;111,52994
0,7764;111,93779;0,09234;111,93779
0,7818;112,34355;0,09395;112,34355
0,7884;112,74838;0,09627;112,74838
1,2512;113,14948;0,64236;113,14948
1,2600;113,55838;0,65310;113,55838
1,2645;113,97147;0,65732;113,97147
1,2687;114,37362;0,66149;114,37362
1,2730;114,78520;0,66767;114,78520
1,2775;115,18572;0,67175;115,18572
1,2833;115,58624;0,67782;115,58624
1,3631;115,98629;0,79082;115,98629
1,4791;116,03844;1,39965;116,03844
1,5373;116,05892;2,01273;116,05892
1,5842;116,07196;2,63296;116,07196
1,6256;116,08080;3,24067;116,08080
1,6650;116,09163;3,84924;116,09163
1,7044;116,10048;4,46437;116,10048
1,7307;116,10339;4,86955;116,10339
1,7320;116,10362;4,86955;116,10362
