Part protocol
Network name;Part_OP10_MP-002_2020-08-25_16-17-03_0008_OK.csv
Protocol version;2.01.00

Index;Result information;Process values - curve related;Process values - EO related;Evaluation objects settings;Switch signal settings;Device information;Channel-X settings;Channel-Y settings;Cycle control settings;Evaluation settings;Trigger Y settings;Block settings;Measuring curve;Measuring points;Sequence;
Line;10;30;40;70;100;120;150;190;220;240;250;260;270;280;570;



Result information
Date;2020/08/25
Time;16:17:03
Cycle number;8
Total result;OK
Triggered switch signals
Part serial number;0008
Measuring program name;D57-Right
Measuring program number;2
Zero X offset;0,00;mm
Tara Y offset;0,0;kN









Process values - curve related
Block X;116,10;mm;XMIN-X;0,03;mm
Block Y;4,8;kN;XMIN-Y;0,0;kN
Ref X;-;mm;XMAX-X;116,10;mm
Peak-peak X;116,07;mm;XMAX-Y;4,8;kN
Peak-peak Y;4,8;kN;YMIN-X;0,43;mm
;;;YMIN-Y;0,0;kN
;;;YMAX-X;116,10;mm
;;;YMAX-Y;4,8;kN

Process values - EO related;Result;Entry;Exit;XMIN-X;XMIN-Y;XMAX-X;XMAX-Y;YMIN-Y;YMIN-X;YMAX-Y;YMAX-X
;;;;mm;kN;mm;kN;kN;mm;kN;mm
EO-01;OK;0,7;0,7;;;;;0,7;115,00;0,7;115,27;;;;;;
EO-02;OK;;116,09;116,07;2,3;116,08;3,1;2,3;116,07;;;;;;;;
EO-03;None;
EO-04;None;
























Evaluation objects settings;Reaction;X reference;Y-Reference;XMin;XMax;YMin;YMax;Entry;Exit;Curve part;Catch zone X;Catch zone Y
EO-01;UNI-BOX;ABSOLUTE;-;115,00;115,50;0,4;2,0;LEFT;RIGHT;ANY;+50%;+50%
EO-02;UNI-BOX;ABSOLUTE;-;115,40;117,10;2,3;3,3;ANY;ABOVE;ANY;+50%;+50%
EO-03;OFF
EO-04;OFF

























Switch signal settings;Channel;Threshold at;;Trigger from;Reference;Latch until
Type S1;OFF
Type S2;OFF

















Device information
Device type;maXYmos BL
Device type number;5867B1011
Device serial number;5182443
Firmware version;2.3.2 (r22473-BL_v2.3.x)
-
-
-
-
-
IP Address;10.0.0.18
Network name;OP10
Profibus address;10
-
-
-
Station name;OP10
Company name;
Comment;











Channel-X settings
Use the settings from global setup;True
Sensor-X type;Â±10V
Unit;mm
Used range from;0,00;mm
Used range to;200,00;mm
Decimal places;XXXX.XX
Scaling by;Teach-In
Point 1;0,00;mm;-0,350;%
Point 2;200,00;mm;10,000;%
Invert signal;FALSE
Filter;20 Hz
Test point;0,00;mm
Tolerance;2,00;mm
Enable sensor test by dig-input;FALSE
Zoom from;100,00;mm
Zoom to;120,00;mm























Channel-Y settings
Use the settings from global setup;True
Sensor-Y type;Strain Gage
Unit;kN
Used range from;0,0;kN
Used range to;20,0;kN
Decimal places;XXXXX.X
Scaling by;Teach-In
Point 1;0,0;kN;-0,01562;%
Point 2;20,0;kN;2,00000;%
Invert signal;FALSE
Filter;1 Hz
Piezo reset;-
Test point;0,0;kN
Tolerance;0,1;kN
Enable sensor test by dig-input;FALSE
Zoom from;0,0;kN
Zoom to;5,0;kN












Cycle control settings
Use the settings from global setup;True
Measuring function;Y (X)
Delta-X;Automatic
START condition;Dig-Input
STOP condition;Dig-Input
Cycle time out;20,00;s
Turning point RIGHT;YMAX
Turning point LEFT;NONE
Cut curve at;NONE










Evaluation settings
Capture only first NOK-EO for statistics;False
Hysteresis-X;0,0;%
Hysteresis-Y;100,0;%






Trigger Y settings
Threshold;1,8;kN
Value X at TRIGGER Y;0,00;mm
Approach from;BELOW






Block settings
Value X at block;XMAX
Block at;0,00;mm







Measuring curve
Number of measuring points;287
Ref. Graph on;ABSOLUTE
Curve segments;0;286;285;287;


Time;X(ABSOLUTE);Y;X (ABSOLUTE)


s;mm;kN;mm
0,0000;0,03029;-0,04506;0,03029
0,1123;0,43372;-0,04507;0,43372
0,1155;0,83971;-0,04507;0,83971
0,1177;1,25059;-0,04507;1,25059
0,1196;1,67741;-0,04506;1,67741
0,1213;2,12705;-0,04506;2,12705
0,1228;2,57390;-0,04505;2,57390
0,1241;2,99397;-0,04505;2,99397
0,1254;3,43255;-0,04504;3,43255
0,1267;3,88161;-0,04503;3,88161
0,1280;4,33393;-0,04503;4,33393
0,1294;4,78438;-0,04502;4,78438
0,1307;5,22913;-0,04500;5,22913
0,1320;5,66527;-0,04498;5,66527
0,1333;6,09023;-0,04498;6,09023
0,1346;6,50297;-0,04496;6,50297
0,1359;6,90373;-0,04494;6,90373
0,1374;7,34848;-0,04494;7,34848
0,1389;7,78170;-0,04492;7,78170
0,1404;8,20585;-0,04489;8,20585
0,1419;8,62336;-0,04486;8,62336
0,1434;9,03646;-0,04482;9,03646
0,1449;9,44733;-0,04482;9,44733
0,1464;9,85775;-0,04479;9,85775
0,1479;10,26909;-0,04475;10,26909
0,1494;10,68218;-0,04470;10,68218
0,1509;11,09760;-0,04466;11,09760
0,1524;11,51500;-0,04466;11,51500
0,1539;11,93426;-0,04460;11,93426
0,1554;12,35468;-0,04455;12,35468
0,1570;12,77545;-0,04448;12,77545
0,1585;13,19576;-0,04442;13,19576
0,1600;13,61467;-0,04442;13,61467
0,1615;14,03149;-0,04435;14,03149
0,1630;14,44539;-0,04427;14,44539
0,1645;14,85581;-0,04419;14,85581
0,1660;15,26226;-0,04411;15,26226
0,1675;15,66430;-0,04411;15,66430
0,1692;16,11114;-0,04402;16,11114
0,1708;16,55182;-0,04393;16,55182
0,1725;16,98632;-0,04382;16,98632
0,1742;17,41466;-0,04372;17,41466
0,1759;17,83707;-0,04361;17,83707
0,1776;18,25388;-0,04349;18,25388
0,1793;18,66546;-0,04337;18,66546
0,1810;19,07226;-0,04324;19,07226
0,1827;19,47465;-0,04311;19,47465
0,1845;19,91672;-0,04297;19,91672
0,1864;20,35437;-0,04282;20,35437
0,1883;20,78795;-0,04268;20,78795
0,1902;21,21803;-0,04252;21,21803
0,1921;21,64497;-0,04236;21,64497
0,1939;22,06924;-0,04220;22,06924
0,1958;22,49106;-0,04202;22,49106
0,1977;22,91090;-0,04184;22,91090
0,1996;23,32911;-0,04166;23,32911
0,2014;23,74593;-0,04146;23,74593
0,2033;24,16146;-0,04127;24,16146
0,2052;24,57606;-0,04107;24,57606
0,2071;24,98985;-0,04085;24,98985
0,2090;25,40318;-0,04064;25,40318
0,2108;25,81603;-0,04041;25,81603
0,2127;26,22889;-0,04019;26,22889
0,2146;26,64187;-0,03995;26,64187
0,2165;27,05496;-0,03971;27,05496
0,2183;27,46851;-0,03946;27,46851
0,2202;27,88277;-0,03921;27,88277
0,2221;28,29772;-0,03895;28,29772
0,2240;28,71349;-0,03868;28,71349
0,2259;29,13007;-0,03840;29,13007
0,2277;29,54735;-0,03812;29,54735
0,2296;29,96533;-0,03784;29,96533
0,2315;30,38401;-0,03755;30,38401
0,2334;30,80327;-0,03724;30,80327
0,2352;31,22346;-0,03694;31,22346
0,2371;31,64458;-0,03663;31,64458
0,2390;32,06675;-0,03631;32,06675
0,2409;32,48985;-0,03598;32,48985
0,2427;32,91377;-0,03565;32,91377
0,2446;33,33826;-0,03532;33,33826
0,2465;33,76346;-0,03498;33,76346
0,2484;34,18912;-0,03462;34,18912
0,2503;34,61501;-0,03427;34,61501
0,2521;35,04114;-0,03391;35,04114
0,2540;35,46704;-0,03354;35,46704
0,2559;35,89281;-0,03316;35,89281
0,2578;36,31813;-0,03278;36,31813
0,2596;36,74320;-0,03240;36,74320
0,2615;37,16759;-0,03200;37,16759
0,2634;37,59127;-0,03161;37,59127
0,2653;38,01390;-0,03121;38,01390
0,2672;38,43526;-0,03079;38,43526
0,2690;38,85510;-0,03038;38,85510
0,2709;39,27378;-0,02996;39,27378
0,2728;39,69106;-0,02953;39,69106
0,2747;40,10706;-0,02910;40,10706
0,2765;40,52166;-0,02866;40,52166
0,2784;40,93475;-0,02822;40,93475
0,2803;41,34610;-0,02777;41,34610
0,2822;41,75558;-0,02732;41,75558
0,2841;42,16332;-0,02686;42,16332
0,2859;42,56919;-0,02639;42,56919
0,2878;42,97320;-0,02593;42,97320
0,2897;43,37535;-0,02546;43,37535
0,2916;43,77541;-0,02498;43,77541
0,2936;44,21306;-0,02450;44,21306
0,2957;44,64803;-0,02401;44,64803
0,2978;45,08032;-0,02351;45,08032
0,2998;45,50994;-0,02302;45,50994
0,3019;45,93712;-0,02252;45,93712
0,3040;46,36196;-0,02201;46,36196
0,3060;46,78437;-0,02150;46,78437
0,3081;47,20421;-0,02099;47,20421
0,3101;47,62161;-0,02047;47,62161
0,3122;48,03667;-0,01942;48,03667
0,3143;48,44930;-0,01890;48,44930
0,3163;48,85983;-0,01836;48,85983
0,3184;49,26826;-0,01782;49,26826
0,3205;49,67472;-0,01729;49,67472
0,3225;50,07908;-0,01674;50,07908
0,3246;50,48158;-0,01619;50,48158
0,3267;50,88233;-0,01565;50,88233
0,3289;51,31765;-0,01509;51,31765
0,3312;51,75123;-0,01397;51,75123
0,3334;52,18341;-0,01342;52,18341
0,3357;52,61419;-0,01285;52,61419
0,3379;53,04370;-0,01229;53,04370
0,3402;53,47203;-0,01171;53,47203
0,3424;53,89909;-0,01056;53,89909
0,3447;54,32464;-0,00999;54,32464
0,3469;54,74902;-0,00942;54,74902
0,3492;55,17224;-0,00883;55,17224
0,3515;55,59440;-0,00825;55,59440
0,3537;56,01518;-0,00708;56,01518
0,3560;56,43444;-0,00649;56,43444
0,3582;56,85207;-0,00590;56,85207
0,3605;57,26807;-0,00532;57,26807
0,3627;57,68267;-0,00472;57,68267
0,3650;58,09623;-0,00353;58,09623
0,3672;58,50909;-0,00294;58,50909
0,3695;58,92148;-0,00234;58,92148
0,3717;59,33340;-0,00174;59,33340
0,3740;59,74487;-0,00114;59,74487
0,3762;60,15586;0,00006;60,15586
0,3785;60,56651;0,00065;60,56651
0,3807;60,97692;0,00126;60,97692
0,3830;61,38733;0,00186;61,38733
0,3852;61,79775;0,00247;61,79775
0,3875;62,20793;0,00367;62,20793
0,3897;62,61776;0,00427;62,61776
0,3920;63,02678;0,00488;63,02678
0,3943;63,43544;0,00548;63,43544
0,3965;63,84388;0,00608;63,84388
0,3988;64,25208;0,00729;64,25208
0,4010;64,66028;0,00789;64,66028
0,4033;65,06813;0,00850;65,06813
0,4055;65,47564;0,00910;65,47564
0,4078;65,88233;0,00970;65,88233
0,4100;66,28843;0,01089;66,28843
0,4123;66,69384;0,01149;66,69384
0,4145;67,09867;0,01210;67,09867
0,4168;67,50268;0,01269;67,50268
0,4190;67,90611;0,01329;67,90611
0,4213;68,30884;0,01448;68,30884
0,4235;68,71053;0,01508;68,71053
0,4258;69,11151;0,01567;69,11151
0,4282;69,54474;0,01626;69,54474
0,4307;69,97703;0,01744;69,97703
0,4331;70,40840;0,01803;70,40840
0,4356;70,83895;0,01861;70,83895
0,4380;71,26857;0,01978;71,26857
0,4404;71,69691;0,02036;71,69691
0,4429;72,12350;0,02095;72,12350
0,4453;72,54823;0,02152;72,54823
0,4478;72,97086;0,02267;72,97086
0,4502;73,39152;0,02324;73,39152
0,4526;73,81020;0,02382;73,81020
0,4551;74,22725;0,02495;74,22725
0,4575;74,64255;0,02552;74,64255
0,4600;75,05622;0,02608;75,05622
0,4624;75,46861;0,02720;75,46861
0,4648;75,87984;0,02776;75,87984
0,4673;76,28990;0,02831;76,28990
0,4697;76,69892;0,02886;76,69892
0,4722;77,10701;0,02996;77,10701
0,4746;77,51416;0,03051;77,51416
0,4770;77,92027;0,03105;77,92027
0,4795;78,32498;0,03213;78,32498
0,4819;78,72829;0,03267;78,72829
0,4844;79,12986;0,03319;79,12986
0,4868;79,53003;0,03426;79,53003
0,4894;79,95930;0,03478;79,95930
0,4921;80,38694;0,03530;80,38694
0,4947;80,81272;0,03634;80,81272
0,4973;81,23698;0,03685;81,23698
0,5000;81,65927;0,03788;81,65927
0,5026;82,07969;0,03838;82,07969
0,5052;82,49814;0,03889;82,49814
0,5078;82,91507;0,03989;82,91507
0,5105;83,33084;0,04038;83,33084
0,5131;83,74590;0,04136;83,74590
0,5157;84,16016;0,04185;84,16016
0,5184;84,57372;0,04233;84,57372
0,5210;84,98646;0,04329;84,98646
0,5236;85,39885;0,04376;85,39885
0,5262;85,81101;0,04471;85,81101
0,5289;86,22293;0,04517;86,22293
0,5315;86,63463;0,04563;86,63463
0,5341;87,04562;0,04656;87,04562
0,5368;87,45627;0,04701;87,45627
0,5394;87,86622;0,04791;87,86622
0,5420;88,27582;0,04836;88,27582
0,5446;88,68472;0,04880;88,68472
0,5473;89,09257;0,04968;89,09257
0,5499;89,49938;0,05011;89,49938
0,5525;89,90513;0,05098;89,90513
0,5551;90,31008;0,05141;90,31008
0,5578;90,71455;0,05183;90,71455
0,5604;91,11868;0,05267;91,11868
0,5630;91,52269;0,05309;91,52269
0,5657;91,92624;0,05391;91,92624
0,5683;92,32920;0,05432;92,32920
0,5709;92,73147;0,05472;92,73147
0,5735;93,13269;0,05552;93,13269
0,5764;93,56114;0,05591;93,56114
0,5792;93,98808;0,05670;93,98808
0,5820;94,41363;0,05708;94,41363
0,5848;94,83754;0,05785;94,83754
0,5876;95,25983;0,05823;95,25983
0,5904;95,68037;0,05898;95,68037
0,5933;96,09881;0,05935;96,09881
0,5961;96,51516;0,06008;96,51516
0,5989;96,92942;0,06045;96,92942
0,6017;97,34216;0,06117;97,34216
0,6045;97,75374;0,06152;97,75374
0,6073;98,16473;0,06222;98,16473
0,6102;98,57515;0,06257;98,57515
0,6130;98,98474;0,06326;98,98474
0,6158;99,39353;0,06360;99,39353
0,6186;99,80126;0,06428;99,80126
0,6214;100,20819;0,06461;100,20819
0,6242;100,61441;0,06527;100,61441
0,6271;101,01993;0,06559;101,01993
0,6299;101,42464;0,06624;101,42464
0,6327;101,82842;0,06655;101,82842
0,6355;102,23139;0,06718;102,23139
0,6383;102,63365;0,06750;102,63365
0,6411;103,03569;0,06812;103,03569
0,6440;103,43760;0,06842;103,43760
0,6468;103,83987;0,06903;103,83987
0,6496;104,24248;0,06932;104,24248
0,6524;104,64556;0,06991;104,64556
0,6552;105,04853;0,07020;105,04853
0,6580;105,45103;0,07079;105,45103
0,6608;105,85248;0,07107;105,85248
0,6637;106,25300;0,07164;106,25300
0,6667;106,67819;0,07191;106,67819
0,6697;107,09885;0,07247;107,09885
0,6727;107,51054;0,07302;107,51054
0,6759;107,93399;0,07329;107,93399
0,6791;108,33812;0,07383;108,33812
0,6826;108,75866;0,07436;108,75866
0,6866;109,17233;0,07489;109,17233
0,6913;109,57751;0,07540;109,57751
0,6982;109,98024;0,07644;109,98024
0,7568;110,38134;0,08524;110,38134
0,7688;110,78943;0,08788;110,78943
0,7754;111,19938;0,08913;111,19938
0,7804;111,60036;0,09047;111,60036
0,7849;112,00332;0,09141;112,00332
0,7894;112,41642;0,09290;112,41642
0,7947;112,82543;0,09449;112,82543
0,8069;113,22665;0,09803;113,22665
1,2811;113,62694;0,66292;113,62694
1,2860;114,04003;0,66701;114,04003
1,2902;114,45126;0,67106;114,45126
1,2943;114,86667;0,67704;114,86667
1,2988;115,27348;0,68098;115,27348
1,3052;115,67621;0,68682;115,67621
1,4950;116,03692;1,29323;116,03692
1,5588;116,05822;1,90193;116,05822
1,6076;116,06998;2,51067;116,06998
1,6508;116,08488;3,12234;116,08488
1,6921;116,09105;3,74455;116,09105
1,7315;116,09931;4,35057;116,09931
1,7578;116,10327;4,75241;116,10327
1,7589;116,10362;4,75241;116,10362
