Part protocol
Network name;Part_OP10_MP-002_2020-08-26_16-25-25_0042_OK.csv
Protocol version;2.01.00

Index;Result information;Process values - curve related;Process values - EO related;Evaluation objects settings;Switch signal settings;Device information;Channel-X settings;Channel-Y settings;Cycle control settings;Evaluation settings;Trigger Y settings;Block settings;Measuring curve;Measuring points;Sequence;
Line;10;30;40;70;100;120;150;190;220;240;250;260;270;280;570;



Result information
Date;2020/08/26
Time;16:25:25
Cycle number;42
Total result;OK
Triggered switch signals
Part serial number;0042
Measuring program name;D57-Right
Measuring program number;2
Zero X offset;0,00;mm
Tara Y offset;0,0;kN









Process values - curve related
Block X;116,09;mm;XMIN-X;0,05;mm
Block Y;4,6;kN;XMIN-Y;0,0;kN
Ref X;-;mm;XMAX-X;116,09;mm
Peak-peak X;116,04;mm;XMAX-Y;4,6;kN
Peak-peak Y;4,7;kN;YMIN-X;0,45;mm
;;;YMIN-Y;0,0;kN
;;;YMAX-X;116,09;mm
;;;YMAX-Y;4,7;kN

Process values - EO related;Result;Entry;Exit;XMIN-X;XMIN-Y;XMAX-X;XMAX-Y;YMIN-Y;YMIN-X;YMAX-Y;YMAX-X
;;;;mm;kN;mm;kN;kN;mm;kN;mm
EO-01;OK;0,7;0,7;;;;;0,7;115,00;0,7;115,39;;;;;;
EO-02;OK;;116,07;116,05;2,3;116,06;3,1;2,3;116,05;;;;;;;;
EO-03;None;
EO-04;None;
























Evaluation objects settings;Reaction;X reference;Y-Reference;XMin;XMax;YMin;YMax;Entry;Exit;Curve part;Catch zone X;Catch zone Y
EO-01;UNI-BOX;ABSOLUTE;-;115,00;115,50;0,4;2,0;LEFT;RIGHT;ANY;+50%;+50%
EO-02;UNI-BOX;ABSOLUTE;-;115,40;117,10;2,3;3,3;ANY;ABOVE;ANY;+50%;+50%
EO-03;OFF
EO-04;OFF

























Switch signal settings;Channel;Threshold at;;Trigger from;Reference;Latch until
Type S1;OFF
Type S2;OFF

















Device information
Device type;maXYmos BL
Device type number;5867B1011
Device serial number;5182443
Firmware version;2.3.2 (r22473-BL_v2.3.x)
-
-
-
-
-
IP Address;10.0.0.18
Network name;OP10
Profibus address;10
-
-
-
Station name;OP10
Company name;
Comment;











Channel-X settings
Use the settings from global setup;True
Sensor-X type;Â±10V
Unit;mm
Used range from;0,00;mm
Used range to;200,00;mm
Decimal places;XXXX.XX
Scaling by;Teach-In
Point 1;0,00;mm;-0,350;%
Point 2;200,00;mm;10,000;%
Invert signal;FALSE
Filter;20 Hz
Test point;0,00;mm
Tolerance;2,00;mm
Enable sensor test by dig-input;FALSE
Zoom from;100,00;mm
Zoom to;120,00;mm























Channel-Y settings
Use the settings from global setup;True
Sensor-Y type;Strain Gage
Unit;kN
Used range from;0,0;kN
Used range to;20,0;kN
Decimal places;XXXXX.X
Scaling by;Teach-In
Point 1;0,0;kN;-0,01562;%
Point 2;20,0;kN;2,00000;%
Invert signal;FALSE
Filter;1 Hz
Piezo reset;-
Test point;0,0;kN
Tolerance;0,1;kN
Enable sensor test by dig-input;FALSE
Zoom from;0,0;kN
Zoom to;5,0;kN












Cycle control settings
Use the settings from global setup;True
Measuring function;Y (X)
Delta-X;Automatic
START condition;Dig-Input
STOP condition;Dig-Input
Cycle time out;20,00;s
Turning point RIGHT;YMAX
Turning point LEFT;NONE
Cut curve at;NONE










Evaluation settings
Capture only first NOK-EO for statistics;False
Hysteresis-X;0,0;%
Hysteresis-Y;100,0;%






Trigger Y settings
Threshold;1,8;kN
Value X at TRIGGER Y;0,00;mm
Approach from;BELOW






Block settings
Value X at block;XMAX
Block at;0,00;mm







Measuring curve
Number of measuring points;286
Ref. Graph on;ABSOLUTE
Curve segments;0;286;285;286;


Time;X(ABSOLUTE);Y;X (ABSOLUTE)


s;mm;kN;mm
0,0000;0,05206;-0,03460;0,05206
0,1083;0,45479;-0,03469;0,45479
0,1117;0,86974;-0,03468;0,86974
0,1141;1,29924;-0,03468;1,29924
0,1160;1,70884;-0,03468;1,70884
0,1177;2,13718;-0,03468;2,13718
0,1192;2,56272;-0,03467;2,56272
0,1205;2,96406;-0,03467;2,96406
0,1218;3,38472;-0,03466;3,38472
0,1231;3,81631;-0,03466;3,81631
0,1244;4,25152;-0,03465;4,25152
0,1257;4,68486;-0,03464;4,68486
0,1271;5,11227;-0,03464;5,11227
0,1284;5,53118;-0,03462;5,53118
0,1297;5,93892;-0,03461;5,93892
0,1312;6,38972;-0,03460;6,38972
0,1327;6,82434;-0,03460;6,82434
0,1342;7,24512;-0,03458;7,24512
0,1357;7,65495;-0,03455;7,65495
0,1372;8,05628;-0,03453;8,05628
0,1389;8,50057;-0,03450;8,50057
0,1406;8,93961;-0,03447;8,93961
0,1423;9,37645;-0,03444;9,37645
0,1440;9,81340;-0,03444;9,81340
0,1456;10,25222;-0,03440;10,25222
0,1473;10,69371;-0,03435;10,69371
0,1490;11,13822;-0,03431;11,13822
0,1507;11,58530;-0,03426;11,58530
0,1524;12,03436;-0,03421;12,03436
0,1541;12,48435;-0,03415;12,48435
0,1558;12,93387;-0,03410;12,93387
0,1575;13,38188;-0,03403;13,38188
0,1592;13,82721;-0,03396;13,82721
0,1608;14,26894;-0,03396;14,26894
0,1625;14,70624;-0,03388;14,70624
0,1642;15,13865;-0,03381;15,13865
0,1659;15,56582;-0,03373;15,56582
0,1676;15,98776;-0,03363;15,98776
0,1693;16,40434;-0,03354;16,40434
0,1710;16,81580;-0,03344;16,81580
0,1727;17,22226;-0,03334;17,22226
0,1744;17,62394;-0,03323;17,62394
0,1762;18,06509;-0,03311;18,06509
0,1781;18,50099;-0,03299;18,50099
0,1800;18,93247;-0,03287;18,93247
0,1819;19,36000;-0,03274;19,36000
0,1838;19,78403;-0,03261;19,78403
0,1856;20,20503;-0,03247;20,20503
0,1875;20,62359;-0,03232;20,62359
0,1894;21,04006;-0,03216;21,04006
0,1913;21,45490;-0,03200;21,45490
0,1931;21,86869;-0,03185;21,86869
0,1950;22,28178;-0,03167;22,28178
0,1969;22,69417;-0,03149;22,69417
0,1988;23,10621;-0,03131;23,10621
0,2006;23,51790;-0,03112;23,51790
0,2025;23,92925;-0,03093;23,92925
0,2044;24,34059;-0,03073;24,34059
0,2063;24,75206;-0,03052;24,75206
0,2082;25,16387;-0,03031;25,16387
0,2100;25,57591;-0,03009;25,57591
0,2119;25,98842;-0,02987;25,98842
0,2138;26,40127;-0,02963;26,40127
0,2157;26,81460;-0,02939;26,81460
0,2175;27,22827;-0,02915;27,22827
0,2194;27,64276;-0,02890;27,64276
0,2213;28,05783;-0,02864;28,05783
0,2232;28,47371;-0,02838;28,47371
0,2251;28,89029;-0,02812;28,89029
0,2269;29,30734;-0,02784;29,30734
0,2288;29,72486;-0,02755;29,72486
0,2307;30,14272;-0,02726;30,14272
0,2326;30,56093;-0,02697;30,56093
0,2344;30,97961;-0,02667;30,97961
0,2363;31,39863;-0,02636;31,39863
0,2382;31,81813;-0,02604;31,81813
0,2401;32,23808;-0,02573;32,23808
0,2420;32,65862;-0,02539;32,65862
0,2438;33,07986;-0,02506;33,07986
0,2457;33,50168;-0,02473;33,50168
0,2476;33,92443;-0,02438;33,92443
0,2495;34,34812;-0,02402;34,34812
0,2513;34,77261;-0,02367;34,77261
0,2532;35,19769;-0,02330;35,19769
0,2551;35,62336;-0,02293;35,62336
0,2570;36,04937;-0,02256;36,04937
0,2588;36,47549;-0,02217;36,47549
0,2607;36,90185;-0,02178;36,90185
0,2626;37,32833;-0,02140;37,32833
0,2645;37,75469;-0,02100;37,75469
0,2664;38,18070;-0,02059;38,18070
0,2682;38,60624;-0,02017;38,60624
0,2701;39,03109;-0,01976;39,03109
0,2720;39,45524;-0,01934;39,45524
0,2739;39,87857;-0,01891;39,87857
0,2757;40,30086;-0,01847;40,30086
0,2776;40,72210;-0,01803;40,72210
0,2795;41,14182;-0,01759;41,14182
0,2814;41,56015;-0,01714;41,56015
0,2833;41,97673;-0,01668;41,97673
0,2851;42,39157;-0,01622;42,39157
0,2870;42,80454;-0,01576;42,80454
0,2889;43,21554;-0,01529;43,21554
0,2908;43,62444;-0,01481;43,62444
0,2926;44,03113;-0,01433;44,03113
0,2945;44,43549;-0,01384;44,43549
0,2964;44,83706;-0,01336;44,83706
0,2985;45,27587;-0,01286;45,27587
0,3005;45,71154;-0,01236;45,71154
0,3026;46,14442;-0,01186;46,14442
0,3047;46,57439;-0,01135;46,57439
0,3067;47,00168;-0,01084;47,00168
0,3088;47,42606;-0,01032;47,42606
0,3109;47,84776;-0,00981;47,84776
0,3129;48,26667;-0,00929;48,26667
0,3150;48,68279;-0,00822;48,68279
0,3170;49,09646;-0,00769;49,09646
0,3191;49,50758;-0,00715;49,50758
0,3212;49,91624;-0,00661;49,91624
0,3232;50,32258;-0,00607;50,32258
0,3253;50,72636;-0,00552;50,72636
0,3274;51,12793;-0,00496;51,12793
0,3296;51,56360;-0,00442;51,56360
0,3319;51,99683;-0,00330;51,99683
0,3341;52,42808;-0,00273;52,42808
0,3364;52,85758;-0,00217;52,85758
0,3386;53,28545;-0,00160;53,28545
0,3409;53,71169;-0,00103;53,71169
0,3431;54,13642;0,00012;54,13642
0,3454;54,56011;0,00069;54,56011
0,3476;54,98298;0,00127;54,98298
0,3499;55,40514;0,00185;55,40514
0,3522;55,82673;0,00243;55,82673
0,3544;56,24774;0,00360;56,24774
0,3567;56,66828;0,00419;56,66828
0,3589;57,08835;0,00478;57,08835
0,3612;57,50819;0,00537;57,50819
0,3634;57,92803;0,00596;57,92803
0,3657;58,34799;0,00715;58,34799
0,3679;58,76818;0,00775;58,76818
0,3702;59,18872;0,00834;59,18872
0,3724;59,60938;0,00894;59,60938
0,3747;60,03015;0,00954;60,03015
0,3769;60,45093;0,01074;60,45093
0,3792;60,87170;0,01134;60,87170
0,3814;61,29247;0,01194;61,29247
0,3837;61,71324;0,01254;61,71324
0,3859;62,13355;0,01314;62,13355
0,3882;62,55351;0,01435;62,55351
0,3905;62,97300;0,01495;62,97300
0,3927;63,39203;0,01555;63,39203
0,3950;63,81082;0,01615;63,81082
0,3972;64,22938;0,01675;64,22938
0,3995;64,64759;0,01796;64,64759
0,4017;65,06534;0,01856;65,06534
0,4040;65,48227;0,01916;65,48227
0,4062;65,89827;0,01976;65,89827
0,4085;66,31299;0,02036;66,31299
0,4107;66,72655;0,02157;66,72655
0,4130;67,13871;0,02216;67,13871
0,4152;67,54970;0,02276;67,54970
0,4175;67,95942;0,02335;67,95942
0,4197;68,36797;0,02395;68,36797
0,4220;68,77524;0,02514;68,77524
0,4242;69,18123;0,02573;69,18123
0,4265;69,58571;0,02632;69,58571
0,4288;69,98891;0,02692;69,98891
0,4310;70,39082;0,02750;70,39082
0,4333;70,79134;0,02868;70,79134
0,4357;71,22399;0,02926;71,22399
0,4381;71,65500;0,02984;71,65500
0,4406;72,08462;0,03042;72,08462
0,4430;72,51261;0,03158;72,51261
0,4455;72,93920;0,03216;72,93920
0,4479;73,36405;0,03273;73,36405
0,4503;73,78715;0,03388;73,78715
0,4528;74,20839;0,03445;74,20839
0,4552;74,62765;0,03502;74,62765
0,4577;75,04470;0,03615;75,04470
0,4601;75,45953;0,03670;75,45953
0,4625;75,87204;0,03727;75,87204
0,4650;76,28246;0,03782;76,28246
0,4674;76,69112;0,03892;76,69112
0,4699;77,09851;0,03948;77,09851
0,4723;77,50450;0,04002;77,50450
0,4747;77,90921;0,04111;77,90921
0,4772;78,31264;0,04165;78,31264
0,4796;78,71479;0,04219;78,71479
0,4821;79,11612;0,04326;79,11612
0,4845;79,51688;0,04378;79,51688
0,4870;79,91716;0,04431;79,91716
0,4894;80,31722;0,04484;80,31722
0,4920;80,74707;0,04587;80,74707
0,4946;81,17564;0,04639;81,17564
0,4973;81,60247;0,04742;81,60247
0,4999;82,02766;0,04793;82,02766
0,5025;82,45146;0,04844;82,45146
0,5052;82,87410;0,04944;82,87410
0,5078;83,29592;0,04994;83,29592
0,5104;83,71715;0,05093;83,71715
0,5130;84,13804;0,05141;84,13804
0,5157;84,55858;0,05190;84,55858
0,5183;84,97901;0,05286;84,97901
0,5209;85,39943;0,05335;85,39943
0,5236;85,82009;0,05429;85,82009
0,5262;86,24074;0,05476;86,24074
0,5288;86,66140;0,05522;86,66140
0,5314;87,08182;0,05615;87,08182
0,5341;87,50178;0,05661;87,50178
0,5367;87,92127;0,05752;87,92127
0,5393;88,34030;0,05796;88,34030
0,5420;88,75886;0,05842;88,75886
0,5446;89,17672;0,05930;89,17672
0,5472;89,59389;0,05974;89,59389
0,5498;90,01024;0,06060;90,01024
0,5525;90,42508;0,06104;90,42508
0,5551;90,83851;0,06146;90,83851
0,5577;91,25044;0,06231;91,25044
0,5604;91,66120;0,06272;91,66120
0,5630;92,07069;0,06356;92,07069
0,5656;92,47889;0,06396;92,47889
0,5682;92,88558;0,06437;92,88558
0,5709;93,29052;0,06518;93,29052
0,5735;93,69372;0,06557;93,69372
0,5761;94,09493;0,06637;94,09493
0,5789;94,52292;0,06676;94,52292
0,5818;94,94905;0,06753;94,94905
0,5846;95,37366;0,06792;95,37366
0,5874;95,79677;0,06867;95,79677
0,5902;96,21824;0,06904;96,21824
0,5930;96,63831;0,06979;96,63831
0,5958;97,05711;0,07015;97,05711
0,5987;97,47474;0,07088;97,47474
0,6015;97,89132;0,07123;97,89132
0,6043;98,30685;0,07194;98,30685
0,6071;98,72134;0,07229;98,72134
0,6099;99,13466;0,07299;99,13466
0,6127;99,54636;0,07333;99,54636
0,6156;99,95654;0,07401;99,95654
0,6184;100,36509;0,07434;100,36509
0,6212;100,77236;0,07501;100,77236
0,6240;101,17835;0,07534;101,17835
0,6268;101,58329;0,07599;101,58329
0,6296;101,98742;0,07631;101,98742
0,6325;102,39120;0,07694;102,39120
0,6353;102,79451;0,07726;102,79451
0,6381;103,19771;0,07788;103,19771
0,6409;103,60091;0,07819;103,60091
0,6437;104,00410;0,07879;104,00410
0,6465;104,40742;0,07910;104,40742
0,6493;104,81120;0,07969;104,81120
0,6522;105,21532;0,07999;105,21532
0,6550;105,61992;0,08057;105,61992
0,6578;106,02486;0,08086;106,02486
0,6606;106,42957;0,08142;106,42957
0,6634;106,83207;0,08171;106,83207
0,6664;107,25575;0,08226;107,25575
0,6694;107,66977;0,08254;107,66977
0,6724;108,07064;0,08309;108,07064
0,6756;108,47745;0,08363;108,47745
0,6790;108,87878;0,08390;108,87878
0,6830;109,29583;0,08470;109,29583
0,6876;109,70042;0,08523;109,70042
0,6950;110,10199;0,08626;110,10199
0,7534;110,50612;0,09523;110,50612
0,7644;110,91386;0,09753;110,91386
0,7712;111,31612;0,09922;111,31612
0,7768;111,72130;0,10059;111,72130
0,7821;112,13136;0,10156;112,13136
0,7875;112,53665;0,10309;112,53665
0,7958;112,93962;0,10590;112,93962
1,2653;113,34468;0,66754;113,34468
1,2710;113,75532;0,67383;113,75532
1,2753;114,16539;0,67794;114,16539
1,2794;114,58069;0,68203;114,58069
1,2835;114,98400;0,68606;114,98400
1,2884;115,38662;0,69204;115,38662
1,2972;115,78958;0,70185;115,78958
1,4846;116,01795;1,30976;116,01795
1,5484;116,03902;1,91645;116,03902
1,5972;116,05275;2,52056;116,05275
1,6404;116,06300;3,12674;116,06300
1,6817;116,07336;3,74343;116,07336
1,7212;116,08197;4,34469;116,08197
1,7412;116,08837;4,63031;116,08837
1,7437;116,08825;4,68717;116,08825
