Part protocol
Network name;Part_OP10_MP-002_2020-08-26_15-57-44_0032_OK.csv
Protocol version;2.01.00

Index;Result information;Process values - curve related;Process values - EO related;Evaluation objects settings;Switch signal settings;Device information;Channel-X settings;Channel-Y settings;Cycle control settings;Evaluation settings;Trigger Y settings;Block settings;Measuring curve;Measuring points;Sequence;
Line;10;30;40;70;100;120;150;190;220;240;250;260;270;280;570;



Result information
Date;2020/08/26
Time;15:57:44
Cycle number;32
Total result;OK
Triggered switch signals
Part serial number;0032
Measuring program name;D57-Right
Measuring program number;2
Zero X offset;0,00;mm
Tara Y offset;0,0;kN









Process values - curve related
Block X;116,13;mm;XMIN-X;-0,03;mm
Block Y;4,7;kN;XMIN-Y;0,0;kN
Ref X;-;mm;XMAX-X;116,13;mm
Peak-peak X;116,15;mm;XMAX-Y;4,7;kN
Peak-peak Y;4,7;kN;YMIN-X;-0,03;mm
;;;YMIN-Y;0,0;kN
;;;YMAX-X;116,13;mm
;;;YMAX-Y;4,7;kN

Process values - EO related;Result;Entry;Exit;XMIN-X;XMIN-Y;XMAX-X;XMAX-Y;YMIN-Y;YMIN-X;YMAX-Y;YMAX-X
;;;;mm;kN;mm;kN;kN;mm;kN;mm
EO-01;OK;0,7;0,7;;;;;0,7;115,00;0,7;115,14;;;;;;
EO-02;OK;;116,11;116,09;2,3;116,10;3,1;2,3;116,09;;;;;;;;
EO-03;None;
EO-04;None;
























Evaluation objects settings;Reaction;X reference;Y-Reference;XMin;XMax;YMin;YMax;Entry;Exit;Curve part;Catch zone X;Catch zone Y
EO-01;UNI-BOX;ABSOLUTE;-;115,00;115,50;0,4;2,0;LEFT;RIGHT;ANY;+50%;+50%
EO-02;UNI-BOX;ABSOLUTE;-;115,40;117,10;2,3;3,3;ANY;ABOVE;ANY;+50%;+50%
EO-03;OFF
EO-04;OFF

























Switch signal settings;Channel;Threshold at;;Trigger from;Reference;Latch until
Type S1;OFF
Type S2;OFF

















Device information
Device type;maXYmos BL
Device type number;5867B1011
Device serial number;5182443
Firmware version;2.3.2 (r22473-BL_v2.3.x)
-
-
-
-
-
IP Address;10.0.0.18
Network name;OP10
Profibus address;10
-
-
-
Station name;OP10
Company name;
Comment;











Channel-X settings
Use the settings from global setup;True
Sensor-X type;Â±10V
Unit;mm
Used range from;0,00;mm
Used range to;200,00;mm
Decimal places;XXXX.XX
Scaling by;Teach-In
Point 1;0,00;mm;-0,350;%
Point 2;200,00;mm;10,000;%
Invert signal;FALSE
Filter;20 Hz
Test point;0,00;mm
Tolerance;2,00;mm
Enable sensor test by dig-input;FALSE
Zoom from;100,00;mm
Zoom to;120,00;mm























Channel-Y settings
Use the settings from global setup;True
Sensor-Y type;Strain Gage
Unit;kN
Used range from;0,0;kN
Used range to;20,0;kN
Decimal places;XXXXX.X
Scaling by;Teach-In
Point 1;0,0;kN;-0,01562;%
Point 2;20,0;kN;2,00000;%
Invert signal;FALSE
Filter;1 Hz
Piezo reset;-
Test point;0,0;kN
Tolerance;0,1;kN
Enable sensor test by dig-input;FALSE
Zoom from;0,0;kN
Zoom to;5,0;kN












Cycle control settings
Use the settings from global setup;True
Measuring function;Y (X)
Delta-X;Automatic
START condition;Dig-Input
STOP condition;Dig-Input
Cycle time out;20,00;s
Turning point RIGHT;YMAX
Turning point LEFT;NONE
Cut curve at;NONE










Evaluation settings
Capture only first NOK-EO for statistics;False
Hysteresis-X;0,0;%
Hysteresis-Y;100,0;%






Trigger Y settings
Threshold;1,8;kN
Value X at TRIGGER Y;0,00;mm
Approach from;BELOW






Block settings
Value X at block;XMAX
Block at;0,00;mm







Measuring curve
Number of measuring points;287
Ref. Graph on;ABSOLUTE
Curve segments;0;286;285;287;


Time;X(ABSOLUTE);Y;X (ABSOLUTE)


s;mm;kN;mm
0,0000;-0,02884;-0,03501;-0,02884
0,1149;0,37727;-0,03494;0,37727
0,1183;0,78675;-0,03493;0,78675
0,1207;1,20694;-0,03493;1,20694
0,1228;1,64913;-0,03492;1,64913
0,1245;2,07037;-0,03492;2,07037
0,1260;2,48707;-0,03491;2,48707
0,1275;2,93671;-0,03490;2,93671
0,1288;3,34933;-0,03490;3,34933
0,1301;3,77197;-0,03489;3,77197
0,1314;4,19786;-0,03488;4,19786
0,1327;4,62201;-0,03488;4,62201
0,1340;5,04115;-0,03487;5,04115
0,1354;5,45250;-0,03485;5,45250
0,1367;5,85383;-0,03485;5,85383
0,1382;6,29893;-0,03484;6,29893
0,1397;6,72913;-0,03483;6,72913
0,1412;7,14630;-0,03480;7,14630
0,1427;7,55310;-0,03478;7,55310
0,1444;8,00111;-0,03475;8,00111
0,1461;8,44144;-0,03475;8,44144
0,1478;8,87676;-0,03473;8,87676
0,1494;9,30964;-0,03469;9,30964
0,1511;9,74228;-0,03466;9,74228
0,1528;10,17644;-0,03462;10,17644
0,1545;10,61293;-0,03458;10,61293
0,1562;11,05197;-0,03453;11,05197
0,1579;11,49347;-0,03448;11,49347
0,1596;11,93682;-0,03443;11,93682
0,1613;12,38145;-0,03437;12,38145
0,1630;12,82632;-0,03437;12,82632
0,1646;13,27026;-0,03431;13,27026
0,1663;13,71233;-0,03424;13,71233
0,1680;14,15149;-0,03418;14,15149
0,1697;14,58705;-0,03410;14,58705
0,1714;15,01841;-0,03402;15,01841
0,1731;15,44524;-0,03394;15,44524
0,1748;15,86729;-0,03385;15,86729
0,1765;16,28445;-0,03376;16,28445
0,1782;16,69650;-0,03366;16,69650
0,1799;17,10365;-0,03366;17,10365
0,1815;17,50603;-0,03356;17,50603
0,1834;17,94787;-0,03345;17,94787
0,1853;18,38483;-0,03334;18,38483
0,1872;18,81747;-0,03322;18,81747
0,1891;19,24639;-0,03310;19,24639
0,1909;19,67205;-0,03297;19,67205
0,1928;20,09481;-0,03283;20,09481
0,1947;20,51511;-0,03269;20,51511
0,1966;20,93321;-0,03254;20,93321
0,1984;21,34944;-0,03239;21,34944
0,2003;21,76428;-0,03223;21,76428
0,2022;22,17795;-0,03207;22,17795
0,2041;22,59058;-0,03190;22,59058
0,2060;23,00250;-0,03173;23,00250
0,2078;23,41373;-0,03155;23,41373
0,2097;23,82438;-0,03136;23,82438
0,2116;24,23456;-0,03117;24,23456
0,2135;24,64439;-0,03097;24,64439
0,2153;25,05445;-0,03076;25,05445
0,2172;25,46463;-0,03055;25,46463
0,2191;25,87505;-0,03033;25,87505
0,2210;26,28581;-0,03011;26,28581
0,2228;26,69680;-0,02987;26,69680
0,2247;27,10838;-0,02964;27,10838
0,2266;27,52054;-0,02940;27,52054
0,2285;27,93352;-0,02915;27,93352
0,2304;28,34730;-0,02889;28,34730
0,2322;28,76179;-0,02863;28,76179
0,2341;29,17651;-0,02837;29,17651
0,2360;29,59147;-0,02809;29,59147
0,2379;30,00619;-0,02781;30,00619
0,2397;30,42091;-0,02752;30,42091
0,2416;30,83563;-0,02723;30,83563
0,2435;31,25023;-0,02692;31,25023
0,2454;31,66483;-0,02662;31,66483
0,2473;32,07909;-0,02631;32,07909
0,2491;32,49311;-0,02599;32,49311
0,2510;32,90678;-0,02566;32,90678
0,2529;33,32011;-0,02533;33,32011
0,2548;33,73320;-0,02500;33,73320
0,2566;34,14594;-0,02465;34,14594
0,2585;34,55845;-0,02430;34,55845
0,2604;34,97049;-0,02394;34,97049
0,2623;35,38207;-0,02358;35,38207
0,2642;35,79295;-0,02321;35,79295
0,2660;36,20301;-0,02284;36,20301
0,2679;36,61238;-0,02246;36,61238
0,2698;37,02069;-0,02207;37,02069
0,2717;37,42820;-0,02168;37,42820
0,2735;37,83465;-0,02128;37,83465
0,2754;38,24006;-0,02088;38,24006
0,2773;38,64431;-0,02047;38,64431
0,2792;39,04750;-0,02005;39,04750
0,2810;39,44954;-0,01964;39,44954
0,2829;39,85040;-0,01921;39,85040
0,2850;40,29015;-0,01878;40,29015
0,2871;40,72862;-0,01790;40,72862
0,2891;41,16568;-0,01745;41,16568
0,2912;41,60147;-0,01700;41,60147
0,2933;42,03598;-0,01654;42,03598
0,2953;42,46979;-0,01608;42,46979
0,2974;42,90278;-0,01561;42,90278
0,2994;43,33531;-0,01514;43,33531
0,3015;43,76737;-0,01467;43,76737
0,3036;44,19886;-0,01418;44,19886
0,3056;44,62987;-0,01369;44,62987
0,3077;45,06042;-0,01271;45,06042
0,3098;45,49039;-0,01221;45,49039
0,3118;45,92001;-0,01170;45,92001
0,3139;46,34916;-0,01120;46,34916
0,3160;46,77808;-0,01068;46,77808
0,3180;47,20654;-0,01017;47,20654
0,3201;47,63441;-0,00965;47,63441
0,3222;48,06135;-0,00913;48,06135
0,3242;48,48725;-0,00860;48,48725
0,3263;48,91209;-0,00807;48,91209
0,3284;49,33589;-0,00699;49,33589
0,3304;49,75853;-0,00645;49,75853
0,3325;50,18000;-0,00591;50,18000
0,3346;50,59984;-0,00535;50,59984
0,3366;51,01817;-0,00481;51,01817
0,3387;51,43463;-0,00425;51,43463
0,3407;51,84947;-0,00370;51,84947
0,3428;52,26256;-0,00313;52,26256
0,3449;52,67390;-0,00257;52,67390
0,3469;53,08339;-0,00200;53,08339
0,3490;53,49089;-0,00086;53,49089
0,3511;53,89630;-0,00029;53,89630
0,3531;54,30008;0,00028;54,30008
0,3552;54,70199;0,00087;54,70199
0,3573;55,10240;0,00144;55,10240
0,3595;55,53737;0,00202;55,53737
0,3618;55,97037;0,00261;55,97037
0,3640;56,40138;0,00378;56,40138
0,3663;56,83030;0,00438;56,83030
0,3685;57,25689;0,00496;57,25689
0,3708;57,68151;0,00555;57,68151
0,3730;58,10414;0,00614;58,10414
0,3753;58,52503;0,00734;58,52503
0,3775;58,94417;0,00794;58,94417
0,3798;59,36180;0,00853;59,36180
0,3821;59,77815;0,00913;59,77815
0,3843;60,19311;0,00973;60,19311
0,3866;60,60701;0,01093;60,60701
0,3888;61,01975;0,01153;61,01975
0,3911;61,43145;0,01213;61,43145
0,3933;61,84209;0,01274;61,84209
0,3956;62,25134;0,01334;62,25134
0,3978;62,65908;0,01454;62,65908
0,4001;63,06554;0,01514;63,06554
0,4023;63,47060;0,01574;63,47060
0,4046;63,87449;0,01635;63,87449
0,4068;64,27745;0,01695;64,27745
0,4091;64,67972;0,01815;64,67972
0,4113;65,08129;0,01875;65,08129
0,4136;65,48204;0,01935;65,48204
0,4160;65,91527;0,01996;65,91527
0,4185;66,34756;0,02115;66,34756
0,4209;66,77881;0,02175;66,77881
0,4234;67,20925;0,02234;67,20925
0,4258;67,63898;0,02295;67,63898
0,4282;68,06813;0,02413;68,06813
0,4307;68,49682;0,02472;68,49682
0,4331;68,92481;0,02532;68,92481
0,4356;69,35233;0,02649;69,35233
0,4380;69,77916;0,02708;69,77916
0,4404;70,20552;0,02767;70,20552
0,4429;70,63130;0,02884;70,63130
0,4453;71,05614;0,02942;71,05614
0,4478;71,47994;0,03000;71,47994
0,4502;71,90246;0,03058;71,90246
0,4526;72,32335;0,03173;72,32335
0,4551;72,74261;0,03230;72,74261
0,4575;73,16012;0,03288;73,16012
0,4600;73,57589;0,03401;73,57589
0,4624;73,99026;0,03458;73,99026
0,4648;74,40324;0,03514;74,40324
0,4673;74,81493;0,03627;74,81493
0,4697;75,22534;0,03682;75,22534
0,4722;75,63471;0,03738;75,63471
0,4746;76,04303;0,03792;76,04303
0,4770;76,45053;0,03902;76,45053
0,4795;76,85722;0,03957;76,85722
0,4819;77,26344;0,04012;77,26344
0,4844;77,66909;0,04119;77,66909
0,4868;78,07356;0,04173;78,07356
0,4893;78,47688;0,04226;78,47688
0,4917;78,87879;0,04332;78,87879
0,4941;79,27943;0,04385;79,27943
0,4968;79,70986;0,04438;79,70986
0,4994;80,13902;0,04541;80,13902
0,5020;80,56677;0,04592;80,56677
0,5046;80,99290;0,04644;80,99290
0,5073;81,41716;0,04746;81,41716
0,5099;81,83968;0,04796;81,83968
0,5125;82,26069;0,04896;82,26069
0,5152;82,68053;0,04946;82,68053
0,5178;83,09921;0,04995;83,09921
0,5204;83,51707;0,05093;83,51707
0,5230;83,93412;0,05141;83,93412
0,5257;84,35035;0,05237;84,35035
0,5283;84,76600;0,05285;84,76600
0,5309;85,18107;0,05332;85,18107
0,5336;85,59591;0,05426;85,59591
0,5362;86,01040;0,05472;86,01040
0,5388;86,42465;0,05564;86,42465
0,5414;86,83832;0,05610;86,83832
0,5441;87,25130;0,05656;87,25130
0,5467;87,66346;0,05746;87,66346
0,5493;88,07480;0,05790;88,07480
0,5520;88,48568;0,05878;88,48568
0,5546;88,89621;0,05921;88,89621
0,5572;89,30639;0,05965;89,30639
0,5598;89,71587;0,06051;89,71587
0,5625;90,12431;0,06093;90,12431
0,5651;90,53146;0,06177;90,53146
0,5677;90,93734;0,06219;90,93734
0,5704;91,34181;0,06260;91,34181
0,5730;91,74513;0,06342;91,74513
0,5756;92,14693;0,06382;92,14693
0,5782;92,54733;0,06463;92,54733
0,5811;92,97450;0,06503;92,97450
0,5839;93,39958;0,06580;93,39958
0,5867;93,82268;0,06619;93,82268
0,5895;94,24404;0,06697;94,24404
0,5923;94,66365;0,06735;94,66365
0,5951;95,08174;0,06810;95,08174
0,5980;95,49833;0,06847;95,49833
0,6008;95,91351;0,06921;95,91351
0,6036;96,32753;0,06957;96,32753
0,6064;96,74039;0,07029;96,74039
0,6092;97,15278;0,07065;97,15278
0,6120;97,56471;0,07136;97,56471
0,6149;97,97629;0,07170;97,97629
0,6177;98,38717;0,07240;98,38717
0,6205;98,79746;0,07274;98,79746
0,6233;99,20683;0,07341;99,20683
0,6261;99,61538;0,07375;99,61538
0,6289;100,02347;0,07440;100,02347
0,6317;100,43132;0,07474;100,43132
0,6346;100,83905;0,07538;100,83905
0,6374;101,24667;0,07570;101,24667
0,6402;101,65418;0,07633;101,65418
0,6430;102,06122;0,07664;102,06122
0,6458;102,46756;0,07726;102,46756
0,6486;102,87308;0,07757;102,87308
0,6515;103,27744;0,07817;103,27744
0,6543;103,68075;0,07848;103,68075
0,6571;104,08290;0,07907;104,08290
0,6599;104,48389;0,07936;104,48389
0,6627;104,88394;0,07994;104,88394
0,6657;105,30949;0,08023;105,30949
0,6687;105,73422;0,08079;105,73422
0,6717;106,15837;0,08108;106,15837
0,6747;106,58123;0,08163;106,58123
0,6777;107,00038;0,08218;107,00038
0,6807;107,41161;0,08245;107,41161
0,6839;107,83564;0,08299;107,83564
0,6871;108,24151;0,08352;108,24151
0,6905;108,64378;0,08378;108,64378
0,6943;109,04593;0,08431;109,04593
0,6988;109,44866;0,08508;109,44866
0,7053;109,85127;0,08585;109,85127
0,7641;110,25144;0,09488;110,25144
0,7774;110,65464;0,09753;110,65464
0,7849;111,06145;0,09923;111,06145
0,7910;111,46150;0,10062;111,46150
0,7966;111,87447;0,10210;111,87447
0,8020;112,28396;0,10368;112,28396
0,8080;112,68471;0,10538;112,68471
0,8231;113,08523;0,11048;113,08523
1,2813;113,48819;0,65782;113,48819
1,2868;113,90443;0,66397;113,90443
1,2913;114,31810;0,66800;114,31810
1,2956;114,72618;0,67398;114,72618
1,3003;115,13695;0,67793;115,13695
1,3063;115,54119;0,68378;115,54119
1,3371;115,94148;0,71678;115,94148
1,5036;116,05496;1,31736;116,05496
1,5674;116,07673;1,92730;116,07673
1,6163;116,09070;2,53150;116,09070
1,6594;116,10339;3,13604;116,10339
1,7007;116,11153;3,74997;116,11153
1,7420;116,12131;4,37628;116,12131
1,7627;116,12573;4,68809;116,12573
1,7642;116,12608;4,68809;116,12608
