Part protocol
Network name;Part_OP10_MP-001_2020-08-26_15-18-52_0023_OK.csv
Protocol version;2.01.00

Index;Result information;Process values - curve related;Process values - EO related;Evaluation objects settings;Switch signal settings;Device information;Channel-X settings;Channel-Y settings;Cycle control settings;Evaluation settings;Trigger Y settings;Block settings;Measuring curve;Measuring points;Sequence;
Line;10;30;40;70;100;120;150;190;220;240;250;260;270;280;600;



Result information
Date;2020/08/26
Time;15:18:52
Cycle number;23
Total result;OK
Triggered switch signals
Part serial number;0023
Measuring program name;D57-Left
Measuring program number;1
Zero X offset;0,00;mm
Tara Y offset;0,0;kN









Process values - curve related
Block X;126,40;mm;XMIN-X;-0,15;mm
Block Y;7,4;kN;XMIN-Y;0,0;kN
Ref X;-;mm;XMAX-X;126,40;mm
Peak-peak X;126,55;mm;XMAX-Y;7,4;kN
Peak-peak Y;7,4;kN;YMIN-X;-0,15;mm
;;;YMIN-Y;0,0;kN
;;;YMAX-X;126,40;mm
;;;YMAX-Y;7,4;kN

Process values - EO related;Result;Entry;Exit;XMIN-X;XMIN-Y;XMAX-X;XMAX-Y;YMIN-Y;YMIN-X;YMAX-Y;YMAX-X
;;;;mm;kN;mm;kN;kN;mm;kN;mm
EO-01;OK;0,7;0,8;;;;;0,7;124,50;0,7;125,41;;;;;;
EO-02;OK;126,35;126,37;126,35;4,5;126,37;5,4;;;;;;;;;;
EO-03;None;
EO-04;None;
























Evaluation objects settings;Reaction;X reference;Y-Reference;XMin;XMax;YMin;YMax;Entry;Exit;Curve part;Catch zone X;Catch zone Y
EO-01;UNI-BOX;ABSOLUTE;-;124,50;125,70;0,5;3,0;LEFT;RIGHT;ANY;+50%;+50%
EO-02;UNI-BOX;ABSOLUTE;-;125,80;127,20;4,5;5,5;BELOW;ABOVE;ANY;+50%;+50%
EO-03;OFF
EO-04;OFF

























Switch signal settings;Channel;Threshold at;;Trigger from;Reference;Latch until
Type S1;OFF
Type S2;OFF

















Device information
Device type;maXYmos BL
Device type number;5867B1011
Device serial number;5182443
Firmware version;2.3.2 (r22473-BL_v2.3.x)
-
-
-
-
-
IP Address;10.0.0.18
Network name;OP10
Profibus address;10
-
-
-
Station name;OP10
Company name;
Comment;











Channel-X settings
Use the settings from global setup;True
Sensor-X type;Â±10V
Unit;mm
Used range from;0,00;mm
Used range to;200,00;mm
Decimal places;XXXX.XX
Scaling by;Teach-In
Point 1;0,00;mm;-0,350;%
Point 2;200,00;mm;10,000;%
Invert signal;FALSE
Filter;20 Hz
Test point;0,00;mm
Tolerance;2,00;mm
Enable sensor test by dig-input;FALSE
Zoom from;110,00;mm
Zoom to;133,11;mm























Channel-Y settings
Use the settings from global setup;True
Sensor-Y type;Strain Gage
Unit;kN
Used range from;0,0;kN
Used range to;20,0;kN
Decimal places;XXXXX.X
Scaling by;Teach-In
Point 1;0,0;kN;-0,01562;%
Point 2;20,0;kN;2,00000;%
Invert signal;FALSE
Filter;1 Hz
Piezo reset;-
Test point;0,0;kN
Tolerance;0,1;kN
Enable sensor test by dig-input;FALSE
Zoom from;0,0;kN
Zoom to;6,0;kN












Cycle control settings
Use the settings from global setup;True
Measuring function;Y (X)
Delta-X;Automatic
START condition;Dig-Input
STOP condition;Dig-Input
Cycle time out;20,00;s
Turning point RIGHT;YMAX
Turning point LEFT;NONE
Cut curve at;NONE










Evaluation settings
Capture only first NOK-EO for statistics;False
Hysteresis-X;0,0;%
Hysteresis-Y;100,0;%






Trigger Y settings
Threshold;1,9;kN
Value X at TRIGGER Y;0,00;mm
Approach from;BELOW






Block settings
Value X at block;XMAX
Block at;0,00;mm







Measuring curve
Number of measuring points;314
Ref. Graph on;ABSOLUTE
Curve segments;0;314;313;314;


Time;X(ABSOLUTE);Y;X (ABSOLUTE)


s;mm;kN;mm
0,0000;-0,15350;-0,03486;-0,15350
0,0989;0,25750;-0,03485;0,25750
0,1028;0,67256;-0,03485;0,67256
0,1057;1,08775;-0,03485;1,08775
0,1079;1,49374;-0,03485;1,49374
0,1100;1,92394;-0,03485;1,92394
0,1118;2,36310;-0,03484;2,36310
0,1135;2,79761;-0,03484;2,79761
0,1150;3,21466;-0,03484;3,21466
0,1165;3,66046;-0,03484;3,66046
0,1179;4,07378;-0,03483;4,07378
0,1192;4,50887;-0,03483;4,50887
0,1205;4,96480;-0,03483;4,96480
0,1216;5,37009;-0,03482;5,37009
0,1227;5,78562;-0,03482;5,78562
0,1239;6,20709;-0,03482;6,20709
0,1250;6,62950;-0,03481;6,62950
0,1261;7,04817;-0,03481;7,04817
0,1272;7,45882;-0,03480;7,45882
0,1286;7,92394;-0,03479;7,92394
0,1299;8,37148;-0,03479;8,37148
0,1312;8,80040;-0,03478;8,80040
0,1325;9,21093;-0,03477;9,21093
0,1340;9,65813;-0,03477;9,65813
0,1355;10,08344;-0,03476;10,08344
0,1370;10,48850;-0,03474;10,48850
0,1387;10,92394;-0,03473;10,92394
0,1404;11,34366;-0,03472;11,34366
0,1421;11,75384;-0,03470;11,75384
0,1438;12,15925;-0,03468;12,15925
0,1455;12,56268;-0,03465;12,56268
0,1471;12,96600;-0,03465;12,96600
0,1488;13,37047;-0,03463;13,37047
0,1505;13,77821;-0,03460;13,77821
0,1522;14,19014;-0,03458;14,19014
0,1539;14,60672;-0,03455;14,60672
0,1556;15,02726;-0,03452;15,02726
0,1573;15,45117;-0,03449;15,45117
0,1590;15,87823;-0,03446;15,87823
0,1607;16,30855;-0,03442;16,30855
0,1623;16,74178;-0,03438;16,74178
0,1640;17,17733;-0,03438;17,17733
0,1657;17,61440;-0,03434;17,61440
0,1674;18,05275;-0,03430;18,05275
0,1691;18,49249;-0,03425;18,49249
0,1708;18,93398;-0,03421;18,93398
0,1725;19,37699;-0,03416;19,37699
0,1742;19,82092;-0,03410;19,82092
0,1759;20,26556;-0,03405;20,26556
0,1776;20,71089;-0,03399;20,71089
0,1792;21,15739;-0,03394;21,15739
0,1809;21,60528;-0,03394;21,60528
0,1826;22,05434;-0,03387;22,05434
0,1843;22,50374;-0,03381;22,50374
0,1860;22,95303;-0,03374;22,95303
0,1877;23,40221;-0,03368;23,40221
0,1894;23,85185;-0,03360;23,85185
0,1909;24,25225;-0,03353;24,25225
0,1924;24,65312;-0,03346;24,65312
0,1939;25,05387;-0,03346;25,05387
0,1954;25,45427;-0,03338;25,45427
0,1971;25,90415;-0,03330;25,90415
0,1988;26,35378;-0,03322;26,35378
0,2005;26,80354;-0,03313;26,80354
0,2021;27,25330;-0,03305;27,25330
0,2038;27,70259;-0,03296;27,70259
0,2055;28,15060;-0,03286;28,15060
0,2072;28,59686;-0,03286;28,59686
0,2089;29,04126;-0,03277;29,04126
0,2106;29,48426;-0,03268;29,48426
0,2123;29,92552;-0,03258;29,92552
0,2140;30,36469;-0,03248;30,36469
0,2157;30,80129;-0,03237;30,80129
0,2174;31,23533;-0,03227;31,23533
0,2190;31,66670;-0,03216;31,66670
0,2207;32,09585;-0,03205;32,09585
0,2224;32,52291;-0,03194;32,52291
0,2241;32,94787;-0,03194;32,94787
0,2258;33,37062;-0,03183;33,37062
0,2275;33,79128;-0,03171;33,79128
0,2292;34,20984;-0,03160;34,20984
0,2309;34,62642;-0,03148;34,62642
0,2326;35,04126;-0,03136;35,04126
0,2343;35,45400;-0,03124;35,45400
0,2359;35,86476;-0,03111;35,86476
0,2376;36,27331;-0,03098;36,27331
0,2393;36,67977;-0,03086;36,67977
0,2410;37,08413;-0,03086;37,08413
0,2427;37,48640;-0,03073;37,48640
0,2446;37,93068;-0,03059;37,93068
0,2465;38,37240;-0,03046;38,37240
0,2483;38,81180;-0,03032;38,81180
0,2502;39,24898;-0,03019;39,24898
0,2521;39,68419;-0,03005;39,68419
0,2540;40,11777;-0,02991;40,11777
0,2558;40,54983;-0,02977;40,54983
0,2577;40,98026;-0,02962;40,98026
0,2596;41,40918;-0,02949;41,40918
0,2615;41,83648;-0,02934;41,83648
0,2634;42,26214;-0,02920;42,26214
0,2652;42,68605;-0,02905;42,68605
0,2671;43,10822;-0,02890;43,10822
0,2690;43,52865;-0,02875;43,52865
0,2709;43,94721;-0,02861;43,94721
0,2727;44,36402;-0,02845;44,36402
0,2746;44,77909;-0,02830;44,77909
0,2765;45,19276;-0,02815;45,19276
0,2784;45,60492;-0,02800;45,60492
0,2802;46,01580;-0,02784;46,01580
0,2821;46,42540;-0,02768;46,42540
0,2840;46,83360;-0,02753;46,83360
0,2859;47,24029;-0,02738;47,24029
0,2878;47,64558;-0,02722;47,64558
0,2896;48,04936;-0,02705;48,04936
0,2915;48,45174;-0,02689;48,45174
0,2934;48,85273;-0,02674;48,85273
0,2953;49,25278;-0,02658;49,25278
0,2973;49,69171;-0,02641;49,69171
0,2994;50,12971;-0,02609;50,12971
0,3015;50,56678;-0,02593;50,56678
0,3035;51,00304;-0,02576;51,00304
0,3056;51,43824;-0,02560;51,43824
0,3077;51,87240;-0,02544;51,87240
0,3097;52,30551;-0,02527;52,30551
0,3118;52,73722;-0,02511;52,73722
0,3139;53,16766;-0,02494;53,16766
0,3159;53,59669;-0,02477;53,59669
0,3180;54,02480;-0,02461;54,02480
0,3201;54,45186;-0,02427;54,45186
0,3221;54,87787;-0,02411;54,87787
0,3242;55,30283;-0,02394;55,30283
0,3262;55,72663;-0,02377;55,72663
0,3283;56,14903;-0,02361;56,14903
0,3304;56,57004;-0,02344;56,57004
0,3324;56,98953;-0,02327;56,98953
0,3345;57,40786;-0,02311;57,40786
0,3366;57,82514;-0,02294;57,82514
0,3386;58,24161;-0,02277;58,24161
0,3407;58,65737;-0,02243;58,65737
0,3428;59,07233;-0,02227;59,07233
0,3448;59,48588;-0,02210;59,48588
0,3469;59,89804;-0,02192;59,89804
0,3490;60,30857;-0,02176;60,30857
0,3510;60,71747;-0,02159;60,71747
0,3531;61,12486;-0,02142;61,12486
0,3552;61,53108;-0,02126;61,53108
0,3572;61,93626;-0,02108;61,93626
0,3593;62,34027;-0,02091;62,34027
0,3614;62,74312;-0,02058;62,74312
0,3634;63,14469;-0,02041;63,14469
0,3655;63,54486;-0,02025;63,54486
0,3677;63,97983;-0,02007;63,97983
0,3700;64,41329;-0,01990;64,41329
0,3722;64,84524;-0,01974;64,84524
0,3745;65,27602;-0,01940;65,27602
0,3767;65,70575;-0,01924;65,70575
0,3790;66,13456;-0,01907;66,13456
0,3813;66,56255;-0,01891;66,56255
0,3835;66,98949;-0,01874;66,98949
0,3858;67,41515;-0,01841;67,41515
0,3880;67,83918;-0,01824;67,83918
0,3903;68,26182;-0,01807;68,26182
0,3925;68,68306;-0,01791;68,68306
0,3948;69,10325;-0,01774;69,10325
0,3970;69,52262;-0,01741;69,52262
0,3993;69,94130;-0,01725;69,94130
0,4015;70,35905;-0,01708;70,35905
0,4038;70,77586;-0,01691;70,77586
0,4060;71,19163;-0,01676;71,19163
0,4083;71,60600;-0,01642;71,60600
0,4105;72,01909;-0,01627;72,01909
0,4128;72,43102;-0,01610;72,43102
0,4150;72,84213;-0,01593;72,84213
0,4173;73,25243;-0,01578;73,25243
0,4196;73,66203;-0,01545;73,66203
0,4218;74,07116;-0,01529;74,07116
0,4241;74,47959;-0,01513;74,47959
0,4263;74,88733;-0,01496;74,88733
0,4286;75,29413;-0,01480;75,29413
0,4308;75,70012;-0,01448;75,70012
0,4331;76,10507;-0,01432;76,10507
0,4353;76,50873;-0,01417;76,50873
0,4376;76,91111;-0,01400;76,91111
0,4398;77,31210;-0,01384;77,31210
0,4423;77,74498;-0,01353;77,74498
0,4447;78,17646;-0,01336;78,17646
0,4472;78,60677;-0,01320;78,60677
0,4496;79,03663;-0,01289;79,03663
0,4520;79,46590;-0,01273;79,46590
0,4545;79,89458;-0,01257;79,89458
0,4569;80,32269;-0,01242;80,32269
0,4594;80,74940;-0,01210;80,74940
0,4618;81,17436;-0,01194;81,17436
0,4642;81,59723;-0,01179;81,59723
0,4667;82,01788;-0,01147;82,01788
0,4691;82,43645;-0,01131;82,43645
0,4716;82,85303;-0,01116;82,85303
0,4740;83,26821;-0,01084;83,26821
0,4764;83,68165;-0,01069;83,68165
0,4789;84,09358;-0,01054;84,09358
0,4813;84,50364;-0,01038;84,50364
0,4838;84,91231;-0,01007;84,91231
0,4862;85,31970;-0,00992;85,31970
0,4886;85,72627;-0,00976;85,72627
0,4911;86,13238;-0,00945;86,13238
0,4935;86,53790;-0,00930;86,53790
0,4960;86,94226;-0,00915;86,94226
0,4984;87,34511;-0,00883;87,34511
0,5008;87,74633;-0,00869;87,74633
0,5035;88,17700;-0,00853;88,17700
0,5061;88,60627;-0,00822;88,60627
0,5087;89,03426;-0,00807;89,03426
0,5114;89,46085;-0,00792;89,46085
0,5140;89,88581;-0,00761;89,88581
0,5166;90,30903;-0,00746;90,30903
0,5192;90,73096;-0,00716;90,73096
0,5219;91,15197;-0,00700;91,15197
0,5245;91,57251;-0,00685;91,57251
0,5271;91,99282;-0,00655;91,99282
0,5298;92,41278;-0,00640;92,41278
0,5324;92,83203;-0,00609;92,83203
0,5350;93,24990;-0,00595;93,24990
0,5376;93,66601;-0,00579;93,66601
0,5403;94,08062;-0,00549;94,08062
0,5429;94,49348;-0,00534;94,49348
0,5455;94,90494;-0,00504;94,90494
0,5482;95,31535;-0,00489;95,31535
0,5508;95,72472;-0,00474;95,72472
0,5534;96,13292;-0,00444;96,13292
0,5560;96,53984;-0,00429;96,53984
0,5587;96,94502;-0,00399;96,94502
0,5613;97,34879;-0,00383;97,34879
0,5639;97,75141;-0,00369;97,75141
0,5666;98,15309;-0,00339;98,15309
0,5692;98,55431;-0,00324;98,55431
0,5718;98,95518;-0,00295;98,95518
0,5744;99,35547;-0,00279;99,35547
0,5773;99,78357;-0,00249;99,78357
0,5801;100,21063;-0,00234;100,21063
0,5829;100,63618;-0,00205;100,63618
0,5857;101,06009;-0,00190;101,06009
0,5885;101,48238;-0,00160;101,48238
0,5913;101,90315;-0,00146;101,90315
0,5942;102,32253;-0,00116;102,32253
0,5970;102,74085;-0,00101;102,74085
0,5998;103,15848;-0,00072;103,15848
0,6026;103,57437;-0,00057;103,57437
0,6054;103,98676;-0,00027;103,98676
0,6082;104,39415;-0,00012;104,39415
0,6110;104,79560;0,00017;104,79560
0,6141;105,21800;0,00032;105,21800
0,6171;105,63412;0,00062;105,63412
0,6201;106,04337;0,00077;106,04337
0,6231;106,44470;0,00105;106,44470
0,6263;106,86222;0,00135;106,86222
0,6294;107,27007;0,00150;107,27007
0,6328;107,69200;0,00180;107,69200
0,6362;108,10510;0,00210;108,10510
0,6396;108,51190;0,00240;108,51190
0,6430;108,91533;0,00270;108,91533
0,6463;109,31795;0,00285;109,31795
0,6497;109,72184;0,00315;109,72184
0,6531;110,12899;0,00346;110,12899
0,6565;110,54092;0,00377;110,54092
0,6599;110,95913;0,00409;110,95913
0,6631;111,36000;0,00425;111,36000
0,6662;111,76657;0,00456;111,76657
0,6694;112,17769;0,00489;112,17769
0,6726;112,59252;0,00505;112,59252
0,6758;113,00841;0,00539;113,00841
0,6790;113,42243;0,00572;113,42243
0,6822;113,83191;0,00588;113,83191
0,6854;114,23429;0,00623;114,23429
0,6888;114,64994;0,00658;114,64994
0,6922;115,05198;0,00694;115,05198
0,6957;115,46018;0,00730;115,46018
0,6995;115,87164;0,00767;115,87164
0,7034;116,28706;0,00805;116,28706
0,7074;116,69317;0,00843;116,69317
0,7113;117,10067;0,00883;117,10067
0,7151;117,50317;0,00923;117,50317
0,7188;117,90474;0,00964;117,90474
0,7235;118,31166;0,01007;118,31166
0,7344;118,71183;0,01144;118,71183
1,2588;118,89934;0,61319;118,89934
1,2894;119,29951;0,65034;119,29951
1,2939;119,70201;0,65477;119,70201
1,2978;120,11196;0,65915;120,11196
1,3016;120,51841;0,66349;120,51841
1,3055;120,93383;0,66780;120,93383
1,3100;121,34809;0,67418;121,34809
1,3158;121,74919;0,68048;121,74919
1,3239;122,15169;0,68880;122,15169
1,3333;122,55454;0,69912;122,55454
1,3402;122,96507;0,70735;122,96507
1,3464;123,37222;0,71357;123,37222
1,3521;123,77274;0,71981;123,77274
1,3575;124,18467;0,72613;124,18467
1,3629;124,59450;0,73251;124,59450
1,3682;125,00503;0,73899;125,00503
1,3733;125,41346;0,74558;125,41346
1,3793;125,81852;0,75227;125,81852
1,5514;126,21858;1,15534;126,21858
1,6530;126,26676;1,76893;126,26676
1,7243;126,29249;2,37368;126,29249
1,7844;126,31111;2,97803;126,31111
1,8407;126,32752;3,59889;126,32752
1,8933;126,34137;4,20288;126,34137
1,9459;126,35313;4,81078;126,35313
2,0003;126,36512;5,42751;126,36512
2,0567;126,37594;6,03832;126,37594
2,1167;126,38560;6,65003;126,38560
2,1806;126,39573;7,25010;126,39573
2,1956;126,39841;7,38368;126,39841
