Part protocol
Network name;Part_OP10_MP-002_2020-08-26_16-30-15_0045_OK.csv
Protocol version;2.01.00

Index;Result information;Process values - curve related;Process values - EO related;Evaluation objects settings;Switch signal settings;Device information;Channel-X settings;Channel-Y settings;Cycle control settings;Evaluation settings;Trigger Y settings;Block settings;Measuring curve;Measuring points;Sequence;
Line;10;30;40;70;100;120;150;190;220;240;250;260;270;280;570;



Result information
Date;2020/08/26
Time;16:30:15
Cycle number;45
Total result;OK
Triggered switch signals
Part serial number;0045
Measuring program name;D57-Right
Measuring program number;2
Zero X offset;0,00;mm
Tara Y offset;0,0;kN









Process values - curve related
Block X;116,16;mm;XMIN-X;-0,03;mm
Block Y;4,8;kN;XMIN-Y;0,0;kN
Ref X;-;mm;XMAX-X;116,16;mm
Peak-peak X;116,20;mm;XMAX-Y;4,8;kN
Peak-peak Y;4,9;kN;YMIN-X;0,37;mm
;;;YMIN-Y;0,0;kN
;;;YMAX-X;116,16;mm
;;;YMAX-Y;4,8;kN

Process values - EO related;Result;Entry;Exit;XMIN-X;XMIN-Y;XMAX-X;XMAX-Y;YMIN-Y;YMIN-X;YMAX-Y;YMAX-X
;;;;mm;kN;mm;kN;kN;mm;kN;mm
EO-01;OK;0,7;0,7;;;;;0,7;115,00;0,7;115,48;;;;;;
EO-02;OK;;116,14;116,12;2,3;116,14;3,1;2,3;116,12;;;;;;;;
EO-03;None;
EO-04;None;
























Evaluation objects settings;Reaction;X reference;Y-Reference;XMin;XMax;YMin;YMax;Entry;Exit;Curve part;Catch zone X;Catch zone Y
EO-01;UNI-BOX;ABSOLUTE;-;115,00;115,50;0,4;2,0;LEFT;RIGHT;ANY;+50%;+50%
EO-02;UNI-BOX;ABSOLUTE;-;115,40;117,10;2,3;3,3;ANY;ABOVE;ANY;+50%;+50%
EO-03;OFF
EO-04;OFF

























Switch signal settings;Channel;Threshold at;;Trigger from;Reference;Latch until
Type S1;OFF
Type S2;OFF

















Device information
Device type;maXYmos BL
Device type number;5867B1011
Device serial number;5182443
Firmware version;2.3.2 (r22473-BL_v2.3.x)
-
-
-
-
-
IP Address;10.0.0.18
Network name;OP10
Profibus address;10
-
-
-
Station name;OP10
Company name;
Comment;











Channel-X settings
Use the settings from global setup;True
Sensor-X type;Â±10V
Unit;mm
Used range from;0,00;mm
Used range to;200,00;mm
Decimal places;XXXX.XX
Scaling by;Teach-In
Point 1;0,00;mm;-0,350;%
Point 2;200,00;mm;10,000;%
Invert signal;FALSE
Filter;20 Hz
Test point;0,00;mm
Tolerance;2,00;mm
Enable sensor test by dig-input;FALSE
Zoom from;100,00;mm
Zoom to;120,00;mm























Channel-Y settings
Use the settings from global setup;True
Sensor-Y type;Strain Gage
Unit;kN
Used range from;0,0;kN
Used range to;20,0;kN
Decimal places;XXXXX.X
Scaling by;Teach-In
Point 1;0,0;kN;-0,01562;%
Point 2;20,0;kN;2,00000;%
Invert signal;FALSE
Filter;1 Hz
Piezo reset;-
Test point;0,0;kN
Tolerance;0,1;kN
Enable sensor test by dig-input;FALSE
Zoom from;0,0;kN
Zoom to;5,0;kN












Cycle control settings
Use the settings from global setup;True
Measuring function;Y (X)
Delta-X;Automatic
START condition;Dig-Input
STOP condition;Dig-Input
Cycle time out;20,00;s
Turning point RIGHT;YMAX
Turning point LEFT;NONE
Cut curve at;NONE










Evaluation settings
Capture only first NOK-EO for statistics;False
Hysteresis-X;0,0;%
Hysteresis-Y;100,0;%






Trigger Y settings
Threshold;1,8;kN
Value X at TRIGGER Y;0,00;mm
Approach from;BELOW






Block settings
Value X at block;XMAX
Block at;0,00;mm







Measuring curve
Number of measuring points;286
Ref. Graph on;ABSOLUTE
Curve segments;0;285;284;286;


Time;X(ABSOLUTE);Y;X (ABSOLUTE)


s;mm;kN;mm
0,0000;-0,03361;-0,03457;-0,03361
0,1069;0,36644;-0,03462;0,36644
0,1103;0,77383;-0,03462;0,77383
0,1127;1,19344;-0,03462;1,19344
0,1148;1,63574;-0,03462;1,63574
0,1164;2,05768;-0,03462;2,05768
0,1179;2,47566;-0,03461;2,47566
0,1194;2,92798;-0,03461;2,92798
0,1208;3,34398;-0,03461;3,34398
0,1221;3,77069;-0,03460;3,77069
0,1234;4,20124;-0,03460;4,20124
0,1247;4,63027;-0,03460;4,63027
0,1260;5,05396;-0,03459;5,05396
0,1273;5,46984;-0,03458;5,46984
0,1286;5,87583;-0,03456;5,87583
0,1302;6,32582;-0,03456;6,32582
0,1317;6,76056;-0,03454;6,76056
0,1332;7,18098;-0,03452;7,18098
0,1347;7,58965;-0,03450;7,58965
0,1363;8,03801;-0,03448;8,03801
0,1380;8,47752;-0,03446;8,47752
0,1397;8,91086;-0,03446;8,91086
0,1414;9,34095;-0,03442;9,34095
0,1431;9,77010;-0,03439;9,77010
0,1448;10,20030;-0,03435;10,20030
0,1465;10,63248;-0,03432;10,63248
0,1482;11,06734;-0,03427;11,06734
0,1499;11,50487;-0,03423;11,50487
0,1516;11,94450;-0,03417;11,94450
0,1532;12,38541;-0,03411;12,38541
0,1549;12,82679;-0,03406;12,82679
0,1566;13,26711;-0,03406;13,26711
0,1583;13,70558;-0,03399;13,70558
0,1600;14,14090;-0,03393;14,14090
0,1617;14,57261;-0,03385;14,57261
0,1634;15,00014;-0,03378;15,00014
0,1651;15,42312;-0,03370;15,42312
0,1668;15,84157;-0,03360;15,84157
0,1685;16,25536;-0,03352;16,25536
0,1701;16,66414;-0,03342;16,66414
0,1718;17,06815;-0,03332;17,06815
0,1737;17,51151;-0,03322;17,51151
0,1756;17,94939;-0,03311;17,94939
0,1775;18,38262;-0,03298;18,38262
0,1793;18,81165;-0,03286;18,81165
0,1812;19,23720;-0,03273;19,23720
0,1831;19,65972;-0,03261;19,65972
0,1850;20,07944;-0,03247;20,07944
0,1868;20,49672;-0,03232;20,49672
0,1887;20,91191;-0,03217;20,91191
0,1906;21,32546;-0,03201;21,32546
0,1925;21,73786;-0,03186;21,73786
0,1944;22,14955;-0,03169;22,14955
0,1962;22,56066;-0,03151;22,56066
0,1981;22,97119;-0,03134;22,97119
0,2000;23,38114;-0,03115;23,38114
0,2019;23,79085;-0,03096;23,79085
0,2037;24,20045;-0,03076;24,20045
0,2056;24,61017;-0,03056;24,61017
0,2075;25,02035;-0,03035;25,02035
0,2094;25,43088;-0,03013;25,43088
0,2113;25,84187;-0,02991;25,84187
0,2131;26,25333;-0,02968;26,25333
0,2150;26,66526;-0,02945;26,66526
0,2169;27,07765;-0,02920;27,07765
0,2188;27,49086;-0,02896;27,49086
0,2206;27,90500;-0,02870;27,90500
0,2225;28,32042;-0,02844;28,32042
0,2244;28,73688;-0,02817;28,73688
0,2263;29,15440;-0,02790;29,15440
0,2282;29,57296;-0,02763;29,57296
0,2300;29,99280;-0,02734;29,99280
0,2319;30,41392;-0,02704;30,41392
0,2338;30,83621;-0,02675;30,83621
0,2357;31,25977;-0,02644;31,25977
0,2375;31,68462;-0,02613;31,68462
0,2394;32,11051;-0,02581;32,11051
0,2413;32,53746;-0,02549;32,53746
0,2432;32,96510;-0,02515;32,96510
0,2450;33,39355;-0,02482;33,39355
0,2469;33,82270;-0,02448;33,82270
0,2488;34,25221;-0,02413;34,25221
0,2507;34,68206;-0,02376;34,68206
0,2526;35,11203;-0,02340;35,11203
0,2544;35,54188;-0,02304;35,54188
0,2563;35,97161;-0,02266;35,97161
0,2582;36,40112;-0,02228;36,40112
0,2601;36,83062;-0,02190;36,83062
0,2619;37,25977;-0,02151;37,25977
0,2638;37,68858;-0,02111;37,68858
0,2657;38,11668;-0,02070;38,11668
0,2676;38,54362;-0,02029;38,54362
0,2695;38,96940;-0,01988;38,96940
0,2713;39,39367;-0,01945;39,39367
0,2732;39,81642;-0,01903;39,81642
0,2751;40,23754;-0,01860;40,23754
0,2770;40,65680;-0,01816;40,65680
0,2788;41,07420;-0,01771;41,07420
0,2807;41,48950;-0,01727;41,48950
0,2826;41,90259;-0,01681;41,90259
0,2845;42,31358;-0,01635;42,31358
0,2864;42,72237;-0,01589;42,72237
0,2882;43,12871;-0,01542;43,12871
0,2901;43,53260;-0,01494;43,53260
0,2920;43,93405;-0,01446;43,93405
0,2940;44,37252;-0,01398;44,37252
0,2961;44,80784;-0,01349;44,80784
0,2982;45,23990;-0,01300;45,23990
0,3002;45,66871;-0,01250;45,66871
0,3023;46,09460;-0,01200;46,09460
0,3044;46,51747;-0,01150;46,51747
0,3064;46,93731;-0,01098;46,93731
0,3085;47,35413;-0,01047;47,35413
0,3106;47,76792;-0,00995;47,76792
0,3126;48,17879;-0,00891;48,17879
0,3147;48,58700;-0,00837;48,58700
0,3168;48,99275;-0,00784;48,99275
0,3188;49,39630;-0,00731;49,39630
0,3209;49,79775;-0,00677;49,79775
0,3231;50,23307;-0,00622;50,23307
0,3254;50,66572;-0,00568;50,66572
0,3277;51,09604;-0,00458;51,09604
0,3299;51,52426;-0,00402;51,52426
0,3322;51,95050;-0,00346;51,95050
0,3344;52,37535;-0,00290;52,37535
0,3367;52,79891;-0,00234;52,79891
0,3389;53,22155;-0,00120;53,22155
0,3412;53,64325;-0,00063;53,64325
0,3434;54,06426;-0,00006;54,06426
0,3457;54,48468;0,00053;54,48468
0,3479;54,90487;0,00110;54,90487
0,3502;55,32506;0,00226;55,32506
0,3524;55,74525;0,00284;55,74525
0,3547;56,16521;0,00343;56,16521
0,3569;56,58505;0,00402;56,58505
0,3592;57,00455;0,00460;57,00455
0,3614;57,42404;0,00578;57,42404
0,3637;57,84353;0,00638;57,84353
0,3660;58,26314;0,00697;58,26314
0,3682;58,68310;0,00756;58,68310
0,3705;59,10329;0,00816;59,10329
0,3727;59,52371;0,00936;59,52371
0,3750;59,94437;0,00995;59,94437
0,3772;60,36514;0,01055;60,36514
0,3795;60,78615;0,01115;60,78615
0,3817;61,20762;0,01175;61,20762
0,3840;61,62944;0,01296;61,62944
0,3862;62,05126;0,01356;62,05126
0,3885;62,47273;0,01416;62,47273
0,3907;62,89374;0,01476;62,89374
0,3930;63,31416;0,01536;63,31416
0,3952;63,73412;0,01657;63,73412
0,3975;64,15361;0,01717;64,15361
0,3997;64,57275;0,01777;64,57275
0,4020;64,99155;0,01837;64,99155
0,4043;65,40987;0,01897;65,40987
0,4065;65,82750;0,02017;65,82750
0,4088;66,24420;0,02077;66,24420
0,4110;66,65974;0,02137;66,65974
0,4133;67,07423;0,02196;67,07423
0,4155;67,48732;0,02257;67,48732
0,4178;67,89889;0,02376;67,89889
0,4200;68,30896;0,02435;68,30896
0,4223;68,71739;0,02494;68,71739
0,4245;69,12408;0,02554;69,12408
0,4268;69,52891;0,02613;69,52891
0,4290;69,93176;0,02731;69,93176
0,4313;70,33286;0,02790;70,33286
0,4337;70,76574;0,02848;70,76574
0,4362;71,19687;0,02907;71,19687
0,4386;71,62625;0,03024;71,62625
0,4410;72,05389;0,03081;72,05389
0,4435;72,47955;0,03140;72,47955
0,4459;72,90324;0,03254;72,90324
0,4484;73,32506;0,03312;73,32506
0,4508;73,74467;0,03369;73,74467
0,4533;74,16218;0,03426;74,16218
0,4557;74,57748;0,03540;74,57748
0,4581;74,99022;0,03596;74,99022
0,4606;75,40029;0,03652;75,40029
0,4630;75,80791;0,03764;75,80791
0,4655;76,21355;0,03819;76,21355
0,4679;76,61768;0,03875;76,61768
0,4703;77,02041;0,03984;77,02041
0,4728;77,42232;0,04039;77,42232
0,4752;77,82343;0,04093;77,82343
0,4777;78,22383;0,04147;78,22383
0,4803;78,65391;0,04254;78,65391
0,4829;79,08318;0,04308;79,08318
0,4855;79,51152;0,04413;79,51152
0,4882;79,93940;0,04466;79,93940
0,4908;80,36645;0,04518;80,36645
0,4934;80,79246;0,04622;80,79246
0,4961;81,21754;0,04674;81,21754
0,4987;81,64146;0,04775;81,64146
0,5013;82,06421;0,04826;82,06421
0,5039;82,48580;0,04877;82,48580
0,5066;82,90657;0,04977;82,90657
0,5092;83,32688;0,05026;83,32688
0,5118;83,74660;0,05124;83,74660
0,5145;84,16575;0,05173;84,16575
0,5171;84,58431;0,05222;84,58431
0,5197;85,00240;0,05318;85,00240
0,5223;85,42015;0,05365;85,42015
0,5250;85,83766;0,05459;85,83766
0,5276;86,25529;0,05506;86,25529
0,5302;86,67269;0,05553;86,67269
0,5329;87,08974;0,05645;87,08974
0,5355;87,50655;0,05690;87,50655
0,5381;87,92314;0,05781;87,92314
0,5407;88,33972;0,05825;88,33972
0,5434;88,75618;0,05870;88,75618
0,5460;89,17230;0,05957;89,17230
0,5486;89,58760;0,06001;89,58760
0,5513;90,00151;0,06087;90,00151
0,5539;90,41355;0,06131;90,41355
0,5565;90,82408;0,06172;90,82408
0,5591;91,23298;0,06256;91,23298
0,5618;91,64060;0,06298;91,64060
0,5644;92,04717;0,06381;92,04717
0,5670;92,45247;0,06421;92,45247
0,5697;92,85648;0,06462;92,85648
0,5723;93,25886;0,06542;93,25886
0,5749;93,65950;0,06581;93,65950
0,5777;94,08690;0,06660;94,08690
0,5805;94,51256;0,06699;94,51256
0,5834;94,93683;0,06776;94,93683
0,5862;95,35981;0,06814;95,35981
0,5890;95,78140;0,06889;95,78140
0,5918;96,20159;0,06926;96,20159
0,5946;96,62062;0,07000;96,62062
0,5974;97,03837;0,07036;97,03837
0,6003;97,45530;0,07108;97,45530
0,6031;97,87141;0,07143;97,87141
0,6059;98,28741;0,07215;98,28741
0,6087;98,70283;0,07249;98,70283
0,6115;99,11779;0,07318;99,11779
0,6143;99,53204;0,07353;99,53204
0,6172;99,94525;0,07420;99,94525
0,6200;100,35717;0,07453;100,35717
0,6228;100,76829;0,07519;100,76829
0,6256;101,17882;0,07552;101,17882
0,6284;101,58876;0,07616;101,58876
0,6312;101,99813;0,07649;101,99813
0,6340;102,40656;0,07712;102,40656
0,6369;102,81407;0,07743;102,81407
0,6397;103,22076;0,07805;103,22076
0,6425;103,62663;0,07836;103,62663
0,6453;104,03157;0,07896;104,03157
0,6481;104,43570;0,07926;104,43570
0,6509;104,83878;0,07985;104,83878
0,6538;105,24093;0,08014;105,24093
0,6566;105,64168;0,08073;105,64168
0,6596;106,06758;0,08101;106,06758
0,6626;106,49184;0,08158;106,49184
0,6656;106,91355;0,08213;106,91355
0,6686;107,33001;0,08241;107,33001
0,6716;107,73763;0,08297;107,73763
0,6748;108,15782;0,08324;108,15782
0,6780;108,56044;0,08377;108,56044
0,6815;108,98133;0,08430;108,98133
0,6855;109,39709;0,08483;109,39709
0,6902;109,80320;0,08561;109,80320
0,6973;110,20489;0,08638;110,20489
0,7559;110,60727;0,09548;110,60727
0,7673;111,00825;0,09775;111,00825
0,7743;111,41657;0,09899;111,41657
0,7799;111,82035;0,10032;111,82035
0,7852;112,23123;0,10175;112,23123
0,7906;112,63873;0,10327;112,63873
0,7989;113,04402;0,10604;113,04402
1,2686;113,44419;0,66831;113,44419
1,2741;113,85414;0,67459;113,85414
1,2782;114,26619;0,67872;114,26619
1,2819;114,66659;0,68281;114,66659
1,2859;115,07514;0,68686;115,07514
1,2906;115,48136;0,69087;115,48136
1,2992;115,88305;0,70077;115,88305
1,4823;116,08744;1,30739;116,08744
1,5461;116,11188;1,92038;116,11188
1,5949;116,13039;2,52935;116,13039
1,6381;116,13993;3,13884;116,13993
1,6794;116,14983;3,75766;116,14983
1,7188;116,15704;4,36012;116,15704
1,7507;116,16380;4,84471;116,16380
1,7511;116,16391;4,84471;116,16391
