Part protocol
Network name;Part_OP10_MP-002_2020-08-26_16-31-36_0046_OK.csv
Protocol version;2.01.00

Index;Result information;Process values - curve related;Process values - EO related;Evaluation objects settings;Switch signal settings;Device information;Channel-X settings;Channel-Y settings;Cycle control settings;Evaluation settings;Trigger Y settings;Block settings;Measuring curve;Measuring points;Sequence;
Line;10;30;40;70;100;120;150;190;220;240;250;260;270;280;570;



Result information
Date;2020/08/26
Time;16:31:36
Cycle number;46
Total result;OK
Triggered switch signals
Part serial number;0046
Measuring program name;D57-Right
Measuring program number;2
Zero X offset;0,00;mm
Tara Y offset;0,0;kN









Process values - curve related
Block X;116,10;mm;XMIN-X;0,06;mm
Block Y;4,7;kN;XMIN-Y;0,0;kN
Ref X;-;mm;XMAX-X;116,10;mm
Peak-peak X;116,04;mm;XMAX-Y;4,7;kN
Peak-peak Y;4,7;kN;YMIN-X;0,06;mm
;;;YMIN-Y;0,0;kN
;;;YMAX-X;116,10;mm
;;;YMAX-Y;4,7;kN

Process values - EO related;Result;Entry;Exit;XMIN-X;XMIN-Y;XMAX-X;XMAX-Y;YMIN-Y;YMIN-X;YMAX-Y;YMAX-X
;;;;mm;kN;mm;kN;kN;mm;kN;mm
EO-01;OK;0,7;0,7;;;;;0,7;115,00;0,7;115,25;;;;;;
EO-02;OK;;116,08;116,06;2,3;116,08;3,1;2,3;116,06;;;;;;;;
EO-03;None;
EO-04;None;
























Evaluation objects settings;Reaction;X reference;Y-Reference;XMin;XMax;YMin;YMax;Entry;Exit;Curve part;Catch zone X;Catch zone Y
EO-01;UNI-BOX;ABSOLUTE;-;115,00;115,50;0,4;2,0;LEFT;RIGHT;ANY;+50%;+50%
EO-02;UNI-BOX;ABSOLUTE;-;115,40;117,10;2,3;3,3;ANY;ABOVE;ANY;+50%;+50%
EO-03;OFF
EO-04;OFF

























Switch signal settings;Channel;Threshold at;;Trigger from;Reference;Latch until
Type S1;OFF
Type S2;OFF

















Device information
Device type;maXYmos BL
Device type number;5867B1011
Device serial number;5182443
Firmware version;2.3.2 (r22473-BL_v2.3.x)
-
-
-
-
-
IP Address;10.0.0.18
Network name;OP10
Profibus address;10
-
-
-
Station name;OP10
Company name;
Comment;











Channel-X settings
Use the settings from global setup;True
Sensor-X type;Â±10V
Unit;mm
Used range from;0,00;mm
Used range to;200,00;mm
Decimal places;XXXX.XX
Scaling by;Teach-In
Point 1;0,00;mm;-0,350;%
Point 2;200,00;mm;10,000;%
Invert signal;FALSE
Filter;20 Hz
Test point;0,00;mm
Tolerance;2,00;mm
Enable sensor test by dig-input;FALSE
Zoom from;100,00;mm
Zoom to;120,00;mm























Channel-Y settings
Use the settings from global setup;True
Sensor-Y type;Strain Gage
Unit;kN
Used range from;0,0;kN
Used range to;20,0;kN
Decimal places;XXXXX.X
Scaling by;Teach-In
Point 1;0,0;kN;-0,01562;%
Point 2;20,0;kN;2,00000;%
Invert signal;FALSE
Filter;1 Hz
Piezo reset;-
Test point;0,0;kN
Tolerance;0,1;kN
Enable sensor test by dig-input;FALSE
Zoom from;0,0;kN
Zoom to;5,0;kN












Cycle control settings
Use the settings from global setup;True
Measuring function;Y (X)
Delta-X;Automatic
START condition;Dig-Input
STOP condition;Dig-Input
Cycle time out;20,00;s
Turning point RIGHT;YMAX
Turning point LEFT;NONE
Cut curve at;NONE










Evaluation settings
Capture only first NOK-EO for statistics;False
Hysteresis-X;0,0;%
Hysteresis-Y;100,0;%






Trigger Y settings
Threshold;1,8;kN
Value X at TRIGGER Y;0,00;mm
Approach from;BELOW






Block settings
Value X at block;XMAX
Block at;0,00;mm







Measuring curve
Number of measuring points;287
Ref. Graph on;ABSOLUTE
Curve segments;0;286;285;287;


Time;X(ABSOLUTE);Y;X (ABSOLUTE)


s;mm;kN;mm
0,0000;0,05543;-0,03461;0,05543
0,1067;0,45991;-0,03460;0,45991
0,1101;0,87568;-0,03460;0,87568
0,1126;1,30658;-0,03460;1,30658
0,1144;1,71745;-0,03459;1,71745
0,1161;2,14672;-0,03459;2,14672
0,1176;2,57204;-0,03458;2,57204
0,1189;2,97209;-0,03458;2,97209
0,1202;3,39042;-0,03457;3,39042
0,1216;3,81934;-0,03456;3,81934
0,1229;4,25152;-0,03455;4,25152
0,1242;4,68172;-0,03455;4,68172
0,1255;5,10633;-0,03453;5,10633
0,1268;5,52257;-0,03452;5,52257
0,1281;5,92856;-0,03452;5,92856
0,1296;6,37843;-0,03450;6,37843
0,1311;6,81305;-0,03448;6,81305
0,1326;7,23406;-0,03446;7,23406
0,1341;7,64436;-0,03444;7,64436
0,1356;8,04650;-0,03444;8,04650
0,1373;8,49184;-0,03441;8,49184
0,1390;8,93263;-0,03437;8,93263
0,1407;9,37121;-0,03435;9,37121
0,1424;9,81003;-0,03431;9,81003
0,1441;10,25024;-0,03426;10,25024
0,1458;10,69289;-0,03423;10,69289
0,1475;11,13811;-0,03417;11,13811
0,1492;11,58554;-0,03412;11,58554
0,1508;12,03448;-0,03412;12,03448
0,1525;12,48400;-0,03407;12,48400
0,1542;12,93294;-0,03400;12,93294
0,1559;13,38013;-0,03394;13,38013
0,1576;13,82430;-0,03387;13,82430
0,1593;14,26463;-0,03380;14,26463
0,1610;14,70030;-0,03373;14,70030
0,1627;15,13085;-0,03364;15,13085
0,1644;15,55605;-0,03356;15,55605
0,1661;15,97577;-0,03347;15,97577
0,1677;16,39014;-0,03347;16,39014
0,1694;16,79893;-0,03336;16,79893
0,1711;17,20236;-0,03326;17,20236
0,1730;17,64466;-0,03316;17,64466
0,1749;18,08127;-0,03305;18,08127
0,1768;18,51275;-0,03293;18,51275
0,1786;18,93957;-0,03281;18,93957
0,1805;19,36232;-0,03268;19,36232
0,1824;19,78170;-0,03255;19,78170
0,1843;20,19782;-0,03241;20,19782
0,1861;20,61137;-0,03226;20,61137
0,1880;21,02260;-0,03211;21,02260
0,1899;21,43220;-0,03196;21,43220
0,1918;21,84063;-0,03179;21,84063
0,1937;22,24814;-0,03162;22,24814
0,1955;22,65529;-0,03146;22,65529
0,1974;23,06198;-0,03127;23,06198
0,1993;23,46832;-0,03109;23,46832
0,2012;23,87443;-0,03090;23,87443
0,2030;24,28042;-0,03070;24,28042
0,2049;24,68641;-0,03049;24,68641
0,2068;25,09263;-0,03029;25,09263
0,2087;25,49944;-0,03007;25,49944
0,2106;25,90682;-0,02985;25,90682
0,2124;26,31479;-0,02962;26,31479
0,2143;26,72346;-0,02938;26,72346
0,2162;27,13283;-0,02914;27,13283
0,2181;27,54289;-0,02890;27,54289
0,2199;27,95365;-0,02864;27,95365
0,2218;28,36511;-0,02838;28,36511
0,2237;28,77739;-0,02812;28,77739
0,2256;29,19001;-0,02785;29,19001
0,2274;29,60299;-0,02757;29,60299
0,2293;30,01620;-0,02728;30,01620
0,2312;30,42975;-0,02700;30,42975
0,2331;30,84366;-0,02670;30,84366
0,2350;31,25780;-0,02639;31,25780
0,2368;31,67205;-0,02608;31,67205
0,2387;32,08630;-0,02576;32,08630
0,2406;32,50044;-0,02544;32,50044
0,2425;32,91470;-0,02512;32,91470
0,2443;33,32907;-0,02477;33,32907
0,2462;33,74355;-0,02443;33,74355
0,2481;34,15839;-0,02409;34,15839
0,2500;34,57346;-0,02374;34,57346
0,2519;34,98888;-0,02338;34,98888
0,2537;35,40453;-0,02301;35,40453
0,2556;35,82041;-0,02264;35,82041
0,2575;36,23653;-0,02226;36,23653
0,2594;36,65288;-0,02188;36,65288
0,2612;37,06958;-0,02148;37,06958
0,2631;37,48651;-0,02109;37,48651
0,2650;37,90368;-0,02068;37,90368
0,2669;38,32107;-0,02028;38,32107
0,2688;38,73870;-0,01987;38,73870
0,2706;39,15645;-0,01944;39,15645
0,2725;39,57420;-0,01902;39,57420
0,2744;39,99206;-0,01859;39,99206
0,2763;40,40957;-0,01816;40,40957
0,2781;40,82685;-0,01771;40,82685
0,2800;41,24344;-0,01727;41,24344
0,2819;41,65932;-0,01681;41,65932
0,2838;42,07404;-0,01636;42,07404
0,2856;42,48771;-0,01590;42,48771
0,2875;42,90010;-0,01542;42,90010
0,2894;43,31098;-0,01495;43,31098
0,2913;43,72012;-0,01448;43,72012
0,2932;44,12762;-0,01400;44,12762
0,2950;44,53303;-0,01351;44,53303
0,2969;44,93634;-0,01302;44,93634
0,2988;45,33744;-0,01253;45,33744
0,3009;45,77603;-0,01203;45,77603
0,3029;46,21216;-0,01152;46,21216
0,3050;46,64586;-0,01050;46,64586
0,3070;47,07699;-0,00998;47,07699
0,3091;47,50579;-0,00945;47,50579
0,3112;47,93192;-0,00894;47,93192
0,3132;48,35548;-0,00841;48,35548
0,3153;48,77661;-0,00787;48,77661
0,3174;49,19505;-0,00733;49,19505
0,3194;49,61105;-0,00680;49,61105
0,3215;50,02426;-0,00625;50,02426
0,3236;50,43502;-0,00570;50,43502
0,3256;50,84299;-0,00460;50,84299
0,3277;51,24840;-0,00405;51,24840
0,3298;51,65136;-0,00348;51,65136
0,3318;52,05200;-0,00293;52,05200
0,3341;52,48651;-0,00236;52,48651
0,3363;52,91845;-0,00179;52,91845
0,3386;53,34807;-0,00122;53,34807
0,3408;53,77548;-0,00008;53,77548
0,3431;54,20056;0,00050;54,20056
0,3453;54,62378;0,00108;54,62378
0,3476;55,04536;0,00165;55,04536
0,3499;55,46567;0,00224;55,46567
0,3521;55,88470;0,00341;55,88470
0,3544;56,30256;0,00400;56,30256
0,3566;56,71926;0,00459;56,71926
0,3589;57,13503;0,00518;57,13503
0,3611;57,54998;0,00577;57,54998
0,3634;57,96435;0,00696;57,96435
0,3656;58,37826;0,00755;58,37826
0,3679;58,79181;0,00815;58,79181
0,3701;59,20502;0,00875;59,20502
0,3724;59,61764;0,00935;59,61764
0,3746;60,02992;0,01055;60,02992
0,3769;60,44185;0,01115;60,44185
0,3791;60,85366;0,01175;60,85366
0,3814;61,26547;0,01236;61,26547
0,3836;61,67751;0,01296;61,67751
0,3859;62,08979;0,01416;62,08979
0,3882;62,50183;0,01476;62,50183
0,3904;62,91376;0,01536;62,91376
0,3927;63,32533;0,01597;63,32533
0,3949;63,73668;0,01657;63,73668
0,3972;64,14767;0,01777;64,14767
0,3994;64,55867;0,01837;64,55867
0,4017;64,96966;0,01897;64,96966
0,4039;65,38066;0,01958;65,38066
0,4062;65,79131;0,02018;65,79131
0,4084;66,20137;0,02137;66,20137
0,4107;66,61085;0,02197;66,61085
0,4129;67,01952;0,02258;67,01952
0,4152;67,42760;0,02317;67,42760
0,4174;67,83476;0,02377;67,83476
0,4197;68,24098;0,02495;68,24098
0,4219;68,64639;0,02555;68,64639
0,4242;69,05064;0,02614;69,05064
0,4265;69,45372;0,02673;69,45372
0,4287;69,85552;0,02731;69,85552
0,4310;70,25604;0,02849;70,25604
0,4334;70,68845;0,02907;70,68845
0,4358;71,11935;0,02966;71,11935
0,4383;71,54885;0,03082;71,54885
0,4407;71,97661;0,03140;71,97661
0,4432;72,40273;0,03197;72,40273
0,4456;72,82688;0,03255;72,82688
0,4480;73,24917;0,03369;73,24917
0,4505;73,66936;0,03427;73,66936
0,4529;74,08734;0,03483;74,08734
0,4554;74,50264;0,03596;74,50264
0,4578;74,91515;0,03652;74,91515
0,4602;75,32486;0,03708;75,32486
0,4627;75,73202;0,03819;75,73202
0,4651;76,13708;0,03874;76,13708
0,4676;76,54039;0,03929;76,54039
0,4700;76,94254;0,03984;76,94254
0,4724;77,34364;0,04092;77,34364
0,4749;77,74381;0,04147;77,74381
0,4775;78,17355;0,04201;78,17355
0,4801;78,60212;0,04307;78,60212
0,4828;79,02953;0,04360;79,02953
0,4854;79,45612;0,04465;79,45612
0,4880;79,88166;0,04517;79,88166
0,4907;80,30628;0,04570;80,30628
0,4933;80,72949;0,04673;80,72949
0,4959;81,15096;0,04724;81,15096
0,4985;81,57104;0,04825;81,57104
0,5012;81,98972;0,04875;81,98972
0,5038;82,40746;0,04925;82,40746
0,5064;82,82428;0,05025;82,82428
0,5091;83,24051;0,05074;83,24051
0,5117;83,65651;0,05172;83,65651
0,5143;84,07251;0,05221;84,07251
0,5169;84,48863;0,05269;84,48863
0,5196;84,90510;0,05364;84,90510
0,5222;85,32203;0,05411;85,32203
0,5248;85,73942;0,05505;85,73942
0,5275;86,15740;0,05551;86,15740
0,5301;86,57573;0,05597;86,57573
0,5327;86,99394;0,05688;86,99394
0,5353;87,41181;0,05733;87,41181
0,5380;87,82932;0,05823;87,82932
0,5406;88,24649;0,05868;88,24649
0,5432;88,66353;0,05912;88,66353
0,5459;89,08035;0,05999;89,08035
0,5485;89,49681;0,06043;89,49681
0,5511;89,91200;0,06129;89,91200
0,5537;90,32556;0,06170;90,32556
0,5564;90,73725;0,06213;90,73725
0,5590;91,14708;0,06296;91,14708
0,5616;91,55528;0,06338;91,55528
0,5643;91,96186;0,06419;91,96186
0,5669;92,36703;0,06460;92,36703
0,5695;92,77069;0,06500;92,77069
0,5721;93,17261;0,06580;93,17261
0,5748;93,57266;0,06619;93,57266
0,5776;93,99914;0,06697;93,99914
0,5804;94,42352;0,06736;94,42352
0,5832;94,84627;0,06812;94,84627
0,5860;95,26751;0,06850;95,26751
0,5888;95,68747;0,06925;95,68747
0,5917;96,10591;0,06962;96,10591
0,5945;96,52285;0,07035;96,52285
0,5973;96,93826;0,07071;96,93826
0,6001;97,35217;0,07143;97,35217
0,6029;97,76468;0,07178;97,76468
0,6057;98,17591;0,07249;98,17591
0,6086;98,58551;0,07283;98,58551
0,6114;98,99336;0,07352;98,99336
0,6142;99,39958;0,07386;99,39958
0,6170;99,80441;0,07452;99,80441
0,6198;100,20830;0,07486;100,20830
0,6226;100,61162;0,07552;100,61162
0,6255;101,01458;0,07584;101,01458
0,6283;101,41766;0,07649;101,41766
0,6311;101,82086;0,07680;101,82086
0,6339;102,22405;0,07743;102,22405
0,6367;102,62690;0,07775;102,62690
0,6395;103,02882;0,07836;103,02882
0,6424;103,43015;0,07866;103,43015
0,6452;103,83126;0,07926;103,83126
0,6480;104,23247;0,07956;104,23247
0,6508;104,63439;0,08015;104,63439
0,6536;105,03712;0,08044;105,03712
0,6564;105,44032;0,08101;105,44032
0,6593;105,84363;0,08130;105,84363
0,6621;106,24660;0,08187;106,24660
0,6649;106,64828;0,08214;106,64828
0,6679;107,07278;0,08270;107,07278
0,6709;107,48982;0,08298;107,48982
0,6739;107,89616;0,08351;107,89616
0,6771;108,31298;0,08405;108,31298
0,6805;108,73189;0,08458;108,73189
0,6840;109,13939;0,08485;109,13939
0,6882;109,55062;0,08562;109,55062
0,6934;109,95510;0,08614;109,95510
0,7047;110,35527;0,08767;110,35527
0,7644;110,76196;0,09723;110,76196
0,7728;111,16504;0,09927;111,16504
0,7790;111,56917;0,10060;111,56917
0,7845;111,97644;0,10203;111,97644
0,7897;112,38359;0,10355;112,38359
0,7961;112,79284;0,10517;112,79284
1,2645;113,19290;0,66075;113,19290
1,2737;113,59749;0,67122;113,59749
1,2782;114,00185;0,67532;114,00185
1,2824;114,41762;0,67939;114,41762
1,2865;114,83583;0,68340;114,83583
1,2910;115,24811;0,68935;115,24811
1,2972;115,65095;0,69522;115,65095
1,4877;116,03134;1,30926;116,03134
1,5516;116,05299;1,92028;116,05299
1,6004;116,06870;2,52756;116,06870
1,6436;116,07789;3,13575;116,07789
1,6849;116,08686;3,75354;116,08686
1,7243;116,09675;4,35516;116,09675
1,7468;116,09873;4,69756;116,09873
1,7478;116,09908;4,69756;116,09908
