Part protocol
Network name;Part_OP10_MP-002_2020-08-26_16-07-04_0038_OK.csv
Protocol version;2.01.00

Index;Result information;Process values - curve related;Process values - EO related;Evaluation objects settings;Switch signal settings;Device information;Channel-X settings;Channel-Y settings;Cycle control settings;Evaluation settings;Trigger Y settings;Block settings;Measuring curve;Measuring points;Sequence;
Line;10;30;40;70;100;120;150;190;220;240;250;260;270;280;570;



Result information
Date;2020/08/26
Time;16:07:04
Cycle number;38
Total result;OK
Triggered switch signals
Part serial number;0038
Measuring program name;D57-Right
Measuring program number;2
Zero X offset;0,00;mm
Tara Y offset;0,0;kN









Process values - curve related
Block X;116,13;mm;XMIN-X;-0,07;mm
Block Y;4,8;kN;XMIN-Y;0,0;kN
Ref X;-;mm;XMAX-X;116,13;mm
Peak-peak X;116,20;mm;XMAX-Y;4,8;kN
Peak-peak Y;4,8;kN;YMIN-X;-0,07;mm
;;;YMIN-Y;0,0;kN
;;;YMAX-X;116,13;mm
;;;YMAX-Y;4,8;kN

Process values - EO related;Result;Entry;Exit;XMIN-X;XMIN-Y;XMAX-X;XMAX-Y;YMIN-Y;YMIN-X;YMAX-Y;YMAX-X
;;;;mm;kN;mm;kN;kN;mm;kN;mm
EO-01;OK;0,7;0,7;;;;;0,7;115,00;0,7;115,50;;;;;;
EO-02;OK;;116,11;116,09;2,3;116,11;3,1;2,3;116,09;;;;;;;;
EO-03;None;
EO-04;None;
























Evaluation objects settings;Reaction;X reference;Y-Reference;XMin;XMax;YMin;YMax;Entry;Exit;Curve part;Catch zone X;Catch zone Y
EO-01;UNI-BOX;ABSOLUTE;-;115,00;115,50;0,4;2,0;LEFT;RIGHT;ANY;+50%;+50%
EO-02;UNI-BOX;ABSOLUTE;-;115,40;117,10;2,3;3,3;ANY;ABOVE;ANY;+50%;+50%
EO-03;OFF
EO-04;OFF

























Switch signal settings;Channel;Threshold at;;Trigger from;Reference;Latch until
Type S1;OFF
Type S2;OFF

















Device information
Device type;maXYmos BL
Device type number;5867B1011
Device serial number;5182443
Firmware version;2.3.2 (r22473-BL_v2.3.x)
-
-
-
-
-
IP Address;10.0.0.18
Network name;OP10
Profibus address;10
-
-
-
Station name;OP10
Company name;
Comment;











Channel-X settings
Use the settings from global setup;True
Sensor-X type;Â±10V
Unit;mm
Used range from;0,00;mm
Used range to;200,00;mm
Decimal places;XXXX.XX
Scaling by;Teach-In
Point 1;0,00;mm;-0,350;%
Point 2;200,00;mm;10,000;%
Invert signal;FALSE
Filter;20 Hz
Test point;0,00;mm
Tolerance;2,00;mm
Enable sensor test by dig-input;FALSE
Zoom from;100,00;mm
Zoom to;120,00;mm























Channel-Y settings
Use the settings from global setup;True
Sensor-Y type;Strain Gage
Unit;kN
Used range from;0,0;kN
Used range to;20,0;kN
Decimal places;XXXXX.X
Scaling by;Teach-In
Point 1;0,0;kN;-0,01562;%
Point 2;20,0;kN;2,00000;%
Invert signal;FALSE
Filter;1 Hz
Piezo reset;-
Test point;0,0;kN
Tolerance;0,1;kN
Enable sensor test by dig-input;FALSE
Zoom from;0,0;kN
Zoom to;5,0;kN












Cycle control settings
Use the settings from global setup;True
Measuring function;Y (X)
Delta-X;Automatic
START condition;Dig-Input
STOP condition;Dig-Input
Cycle time out;20,00;s
Turning point RIGHT;YMAX
Turning point LEFT;NONE
Cut curve at;NONE










Evaluation settings
Capture only first NOK-EO for statistics;False
Hysteresis-X;0,0;%
Hysteresis-Y;100,0;%






Trigger Y settings
Threshold;1,8;kN
Value X at TRIGGER Y;0,00;mm
Approach from;BELOW






Block settings
Value X at block;XMAX
Block at;0,00;mm







Measuring curve
Number of measuring points;286
Ref. Graph on;ABSOLUTE
Curve segments;0;285;284;286;


Time;X(ABSOLUTE);Y;X (ABSOLUTE)


s;mm;kN;mm
0,0000;-0,06527;-0,03473;-0,06527
0,1065;0,33478;-0,03473;0,33478
0,1101;0,75963;-0,03473;0,75963
0,1126;1,17423;-0,03473;1,17423
0,1146;1,60816;-0,03472;1,60816
0,1163;2,02055;-0,03472;2,02055
0,1178;2,42910;-0,03471;2,42910
0,1193;2,87187;-0,03471;2,87187
0,1206;3,28042;-0,03470;3,28042
0,1219;3,70073;-0,03470;3,70073
0,1233;4,12581;-0,03469;4,12581
0,1246;4,55031;-0,03468;4,55031
0,1259;4,97038;-0,03468;4,97038
0,1272;5,38324;-0,03467;5,38324
0,1285;5,78655;-0,03465;5,78655
0,1300;6,23410;-0,03463;6,23410
0,1315;6,66593;-0,03463;6,66593
0,1330;7,08286;-0,03461;7,08286
0,1345;7,48699;-0,03460;7,48699
0,1362;7,92953;-0,03458;7,92953
0,1379;8,36206;-0,03455;8,36206
0,1396;8,78772;-0,03452;8,78772
0,1413;9,20942;-0,03448;9,20942
0,1430;9,62938;-0,03448;9,62938
0,1447;10,04980;-0,03446;10,04980
0,1463;10,47186;-0,03441;10,47186
0,1480;10,89659;-0,03437;10,89659
0,1497;11,32423;-0,03433;11,32423
0,1514;11,75419;-0,03428;11,75419
0,1531;12,18602;-0,03423;12,18602
0,1548;12,61890;-0,03417;12,61890
0,1565;13,05166;-0,03410;13,05166
0,1582;13,48338;-0,03404;13,48338
0,1599;13,91300;-0,03404;13,91300
0,1616;14,33971;-0,03398;14,33971
0,1632;14,76281;-0,03390;14,76281
0,1649;15,18218;-0,03382;15,18218
0,1666;15,59760;-0,03373;15,59760
0,1683;16,00906;-0,03365;16,00906
0,1700;16,41645;-0,03356;16,41645
0,1717;16,81965;-0,03346;16,81965
0,1736;17,26312;-0,03336;17,26312
0,1754;17,70205;-0,03324;17,70205
0,1773;18,13655;-0,03313;18,13655
0,1792;18,56745;-0,03301;18,56745
0,1811;18,99521;-0,03289;18,99521
0,1830;19,42052;-0,03276;19,42052
0,1848;19,84362;-0,03262;19,84362
0,1867;20,26486;-0,03248;20,26486
0,1886;20,68470;-0,03234;20,68470
0,1905;21,10350;-0,03219;21,10350
0,1923;21,52159;-0,03203;21,52159
0,1942;21,93957;-0,03186;21,93957
0,1961;22,35767;-0,03170;22,35767
0,1980;22,77599;-0,03152;22,77599
0,1998;23,19456;-0,03134;23,19456
0,2017;23,61347;-0,03115;23,61347
0,2036;24,03284;-0,03096;24,03284
0,2055;24,45292;-0,03075;24,45292
0,2074;24,87392;-0,03055;24,87392
0,2092;25,29609;-0,03034;25,29609
0,2111;25,71942;-0,03012;25,71942
0,2130;26,14392;-0,02989;26,14392
0,2149;26,56970;-0,02966;26,56970
0,2167;26,99676;-0,02942;26,99676
0,2186;27,42545;-0,02918;27,42545
0,2205;27,85553;-0,02892;27,85553
0,2224;28,28713;-0,02867;28,28713
0,2243;28,72012;-0,02840;28,72012
0,2261;29,15428;-0,02813;29,15428
0,2280;29,58937;-0,02786;29,58937
0,2299;30,02539;-0,02757;30,02539
0,2318;30,46223;-0,02728;30,46223
0,2336;30,89976;-0,02699;30,89976
0,2355;31,33776;-0,02668;31,33776
0,2374;31,77599;-0,02638;31,77599
0,2393;32,21411;-0,02605;32,21411
0,2412;32,65222;-0,02574;32,65222
0,2430;33,08987;-0,02540;33,08987
0,2449;33,52717;-0,02507;33,52717
0,2468;33,96401;-0,02473;33,96401
0,2487;34,40038;-0,02438;34,40038
0,2505;34,83605;-0,02402;34,83605
0,2524;35,27067;-0,02366;35,27067
0,2543;35,70402;-0,02329;35,70402
0,2562;36,13597;-0,02292;36,13597
0,2580;36,56640;-0,02254;36,56640
0,2599;36,99532;-0,02215;36,99532
0,2618;37,42273;-0,02177;37,42273
0,2637;37,84850;-0,02137;37,84850
0,2656;38,27254;-0,02097;38,27254
0,2674;38,69494;-0,02055;38,69494
0,2693;39,11571;-0,02015;39,11571
0,2712;39,53462;-0,01972;39,53462
0,2731;39,95179;-0,01929;39,95179
0,2749;40,36720;-0,01886;40,36720
0,2768;40,78053;-0,01842;40,78053
0,2787;41,19176;-0,01798;41,19176
0,2806;41,60077;-0,01754;41,60077
0,2825;42,00758;-0,01708;42,00758
0,2843;42,41229;-0,01663;42,41229
0,2862;42,81490;-0,01616;42,81490
0,2881;43,21531;-0,01569;43,21531
0,2902;43,65307;-0,01522;43,65307
0,2922;44,08805;-0,01474;44,08805
0,2943;44,52023;-0,01426;44,52023
0,2963;44,94973;-0,01377;44,94973
0,2984;45,37655;-0,01328;45,37655
0,3005;45,80070;-0,01278;45,80070
0,3025;46,22241;-0,01228;46,22241
0,3046;46,64166;-0,01127;46,64166
0,3067;47,05848;-0,01075;47,05848
0,3087;47,47297;-0,01023;47,47297
0,3108;47,88489;-0,00971;47,88489
0,3129;48,29461;-0,00919;48,29461
0,3149;48,70211;-0,00866;48,70211
0,3170;49,10764;-0,00813;49,10764
0,3191;49,51130;-0,00759;49,51130
0,3211;49,91310;-0,00705;49,91310
0,3232;50,31327;-0,00651;50,31327
0,3254;50,74813;-0,00541;50,74813
0,3277;51,18135;-0,00486;51,18135
0,3300;51,61307;-0,00431;51,61307
0,3322;52,04373;-0,00375;52,04373
0,3345;52,47347;-0,00319;52,47347
0,3367;52,90262;-0,00206;52,90262
0,3390;53,33119;-0,00148;53,33119
0,3412;53,75942;-0,00092;53,75942
0,3435;54,18729;-0,00034;54,18729
0,3457;54,61493;0,00023;54,61493
0,3480;55,04234;0,00139;55,04234
0,3502;55,46951;0,00197;55,46951
0,3525;55,89645;0,00255;55,89645
0,3547;56,32293;0,00314;56,32293
0,3570;56,74917;0,00373;56,74917
0,3592;57,17507;0,00490;57,17507
0,3615;57,60073;0,00550;57,60073
0,3637;58,02616;0,00609;58,02616
0,3660;58,45147;0,00668;58,45147
0,3683;58,87632;0,00728;58,87632
0,3705;59,30105;0,00847;59,30105
0,3728;59,72531;0,00907;59,72531
0,3750;60,14911;0,00967;60,14911
0,3773;60,57268;0,01027;60,57268
0,3795;60,99578;0,01087;60,99578
0,3818;61,41841;0,01207;61,41841
0,3840;61,84070;0,01267;61,84070
0,3863;62,26229;0,01327;62,26229
0,3885;62,68317;0,01388;62,68317
0,3908;63,10313;0,01448;63,10313
0,3930;63,52193;0,01569;63,52193
0,3953;63,93967;0,01629;63,93967
0,3975;64,35637;0,01689;64,35637
0,3998;64,77202;0,01749;64,77202
0,4020;65,18663;0,01809;65,18663
0,4043;65,59983;0,01930;65,59983
0,4066;66,01164;0,01990;66,01164
0,4088;66,42217;0,02050;66,42217
0,4111;66,83142;0,02110;66,83142
0,4133;67,23928;0,02170;67,23928
0,4156;67,64620;0,02290;67,64620
0,4178;68,05230;0,02350;68,05230
0,4201;68,45748;0,02409;68,45748
0,4223;68,86149;0,02469;68,86149
0,4246;69,26434;0,02528;69,26434
0,4268;69,66567;0,02646;69,66567
0,4291;70,06584;0,02706;70,06584
0,4315;70,49791;0,02765;70,49791
0,4340;70,92869;0,02823;70,92869
0,4364;71,35831;0,02940;71,35831
0,4388;71,78641;0,02998;71,78641
0,4413;72,21289;0,03056;72,21289
0,4437;72,63750;0,03172;72,63750
0,4462;73,06061;0,03229;73,06061
0,4486;73,48231;0,03287;73,48231
0,4510;73,90262;0,03402;73,90262
0,4535;74,32164;0,03458;74,32164
0,4559;74,73904;0,03516;74,73904
0,4584;75,15469;0,03572;75,15469
0,4608;75,56836;0,03684;75,56836
0,4632;75,98017;0,03740;75,98017
0,4657;76,39035;0,03795;76,39035
0,4681;76,79949;0,03906;76,79949
0,4706;77,20769;0,03961;77,20769
0,4730;77,61508;0,04015;77,61508
0,4755;78,02165;0,04125;78,02165
0,4779;78,42741;0,04178;78,42741
0,4803;78,83212;0,04232;78,83212
0,4828;79,23578;0,04286;79,23578
0,4852;79,63851;0,04391;79,63851
0,4877;80,04031;0,04444;80,04031
0,4901;80,44130;0,04497;80,44130
0,4925;80,84158;0,04601;80,84158
0,4952;81,27155;0,04652;81,27155
0,4978;81,70047;0,04704;81,70047
0,5004;82,12811;0,04806;82,12811
0,5031;82,55447;0,04857;82,55447
0,5057;82,97955;0,04957;82,97955
0,5083;83,40347;0,05007;83,40347
0,5109;83,82633;0,05056;83,82633
0,5136;84,24792;0,05154;84,24792
0,5162;84,66846;0,05203;84,66846
0,5188;85,08830;0,05299;85,08830
0,5214;85,50768;0,05347;85,50768
0,5241;85,92671;0,05395;85,92671
0,5267;86,34538;0,05488;86,34538
0,5293;86,76336;0,05535;86,76336
0,5320;87,17995;0,05628;87,17995
0,5346;87,59513;0,05673;87,59513
0,5372;88,00892;0,05719;88,00892
0,5398;88,42131;0,05808;88,42131
0,5425;88,83254;0,05854;88,83254
0,5451;89,24295;0,05942;89,24295
0,5477;89,65244;0,05985;89,65244
0,5504;90,06099;0,06029;90,06099
0,5530;90,46872;0,06115;90,46872
0,5556;90,87530;0,06157;90,87530
0,5582;91,28082;0,06242;91,28082
0,5609;91,68553;0,06283;91,68553
0,5635;92,08943;0,06325;92,08943
0,5661;92,49251;0,06407;92,49251
0,5688;92,89466;0,06448;92,89466
0,5714;93,29599;0,06529;93,29599
0,5740;93,69604;0,06568;93,69604
0,5768;94,12345;0,06647;94,12345
0,5796;94,54935;0,06686;94,54935
0,5825;94,97396;0,06763;94,97396
0,5853;95,39753;0,06801;95,39753
0,5881;95,81981;0,06877;95,81981
0,5909;96,24082;0,06914;96,24082
0,5937;96,66066;0,06988;96,66066
0,5965;97,07957;0,07024;97,07957
0,5994;97,49778;0,07096;97,49778
0,6022;97,91553;0,07132;97,91553
0,6050;98,33281;0,07203;98,33281
0,6078;98,74939;0,07238;98,74939
0,6106;99,16539;0,07306;99,16539
0,6134;99,58058;0,07340;99,58058
0,6163;99,99506;0,07409;99,99506
0,6191;100,40862;0,07442;100,40862
0,6219;100,82136;0,07508;100,82136
0,6247;101,23329;0,07541;101,23329
0,6275;101,64463;0,07605;101,64463
0,6303;102,05516;0,07638;102,05516
0,6332;102,46441;0,07701;102,46441
0,6360;102,87227;0,07732;102,87227
0,6388;103,27849;0,07794;103,27849
0,6416;103,68366;0,07825;103,68366
0,6444;104,08803;0,07886;104,08803
0,6472;104,49192;0,07915;104,49192
0,6501;104,89570;0,07975;104,89570
0,6529;105,29925;0,08004;105,29925
0,6557;105,70244;0,08063;105,70244
0,6585;106,10517;0,08091;106,10517
0,6613;106,50686;0,08149;106,50686
0,6643;106,93264;0,08176;106,93264
0,6673;107,35236;0,08232;107,35236
0,6703;107,76184;0,08260;107,76184
0,6735;108,18227;0,08314;108,18227
0,6767;108,58348;0,08369;108,58348
0,6803;109,00170;0,08422;109,00170
0,6842;109,41409;0,08474;109,41409
0,6889;109,81682;0,08527;109,81682
0,6960;110,21804;0,08631;110,21804
0,7527;110,61902;0,09483;110,61902
0,7642;111,01954;0,09704;111,01954
0,7710;111,42460;0,09867;111,42460
0,7764;111,82873;0,09999;111,82873
0,7815;112,24345;0,10140;112,24345
0,7867;112,65305;0,10239;112,65305
0,7946;113,05334;0,10507;113,05334
1,2640;113,45607;0,66775;113,45607
1,2692;113,86054;0,67207;113,86054
1,2734;114,26549;0,67845;114,26549
1,2775;114,68312;0,68266;114,68312
1,2818;115,09854;0,68682;115,09854
1,2869;115,49871;0,69301;115,49871
1,2979;115,90097;0,70520;115,90097
1,4817;116,06078;1,31179;116,06078
1,5456;116,08325;1,91668;116,08325
1,5944;116,09722;2,52083;116,09722
1,6376;116,10711;3,12856;116,10711
1,6789;116,11770;3,74800;116,11770
1,7183;116,12608;4,35274;116,12608
1,7465;116,13202;4,78304;116,13202
1,7474;116,13225;4,78304;116,13225
