Part protocol
Network name;Part_OP10_MP-001_2020-08-26_16-23-07_0040_OK.csv
Protocol version;2.01.00

Index;Result information;Process values - curve related;Process values - EO related;Evaluation objects settings;Switch signal settings;Device information;Channel-X settings;Channel-Y settings;Cycle control settings;Evaluation settings;Trigger Y settings;Block settings;Measuring curve;Measuring points;Sequence;
Line;10;30;40;70;100;120;150;190;220;240;250;260;270;280;600;



Result information
Date;2020/08/26
Time;16:23:07
Cycle number;40
Total result;OK
Triggered switch signals
Part serial number;0040
Measuring program name;D57-Left
Measuring program number;1
Zero X offset;0,00;mm
Tara Y offset;0,0;kN









Process values - curve related
Block X;126,37;mm;XMIN-X;-0,20;mm
Block Y;7,4;kN;XMIN-Y;0,0;kN
Ref X;-;mm;XMAX-X;126,37;mm
Peak-peak X;126,58;mm;XMAX-Y;7,4;kN
Peak-peak Y;7,5;kN;YMIN-X;-0,20;mm
;;;YMIN-Y;0,0;kN
;;;YMAX-X;126,37;mm
;;;YMAX-Y;7,4;kN

Process values - EO related;Result;Entry;Exit;XMIN-X;XMIN-Y;XMAX-X;XMAX-Y;YMIN-Y;YMIN-X;YMAX-Y;YMAX-X
;;;;mm;kN;mm;kN;kN;mm;kN;mm
EO-01;OK;0,8;0,8;;;;;0,8;124,50;0,8;125,48;;;;;;
EO-02;OK;126,33;126,34;126,33;4,5;126,34;5,1;;;;;;;;;;
EO-03;None;
EO-04;None;
























Evaluation objects settings;Reaction;X reference;Y-Reference;XMin;XMax;YMin;YMax;Entry;Exit;Curve part;Catch zone X;Catch zone Y
EO-01;UNI-BOX;ABSOLUTE;-;124,50;125,70;0,5;3,0;LEFT;RIGHT;ANY;+50%;+50%
EO-02;UNI-BOX;ABSOLUTE;-;125,80;127,20;4,5;5,5;BELOW;ABOVE;ANY;+50%;+50%
EO-03;OFF
EO-04;OFF

























Switch signal settings;Channel;Threshold at;;Trigger from;Reference;Latch until
Type S1;OFF
Type S2;OFF

















Device information
Device type;maXYmos BL
Device type number;5867B1011
Device serial number;5182443
Firmware version;2.3.2 (r22473-BL_v2.3.x)
-
-
-
-
-
IP Address;10.0.0.18
Network name;OP10
Profibus address;10
-
-
-
Station name;OP10
Company name;
Comment;











Channel-X settings
Use the settings from global setup;True
Sensor-X type;Â±10V
Unit;mm
Used range from;0,00;mm
Used range to;200,00;mm
Decimal places;XXXX.XX
Scaling by;Teach-In
Point 1;0,00;mm;-0,350;%
Point 2;200,00;mm;10,000;%
Invert signal;FALSE
Filter;20 Hz
Test point;0,00;mm
Tolerance;2,00;mm
Enable sensor test by dig-input;FALSE
Zoom from;110,00;mm
Zoom to;133,11;mm























Channel-Y settings
Use the settings from global setup;True
Sensor-Y type;Strain Gage
Unit;kN
Used range from;0,0;kN
Used range to;20,0;kN
Decimal places;XXXXX.X
Scaling by;Teach-In
Point 1;0,0;kN;-0,01562;%
Point 2;20,0;kN;2,00000;%
Invert signal;FALSE
Filter;1 Hz
Piezo reset;-
Test point;0,0;kN
Tolerance;0,1;kN
Enable sensor test by dig-input;FALSE
Zoom from;0,0;kN
Zoom to;6,0;kN












Cycle control settings
Use the settings from global setup;True
Measuring function;Y (X)
Delta-X;Automatic
START condition;Dig-Input
STOP condition;Dig-Input
Cycle time out;20,00;s
Turning point RIGHT;YMAX
Turning point LEFT;NONE
Cut curve at;NONE










Evaluation settings
Capture only first NOK-EO for statistics;False
Hysteresis-X;0,0;%
Hysteresis-Y;100,0;%






Trigger Y settings
Threshold;1,9;kN
Value X at TRIGGER Y;0,00;mm
Approach from;BELOW






Block settings
Value X at block;XMAX
Block at;0,00;mm







Measuring curve
Number of measuring points;315
Ref. Graph on;ABSOLUTE
Curve segments;0;314;313;315;


Time;X(ABSOLUTE);Y;X (ABSOLUTE)


s;mm;kN;mm
0,0000;-0,20332;-0,03401;-0,20332
0,0995;0,20873;-0,03401;0,20873
0,1034;0,62321;-0,03401;0,62321
0,1063;1,03723;-0,03400;1,03723
0,1085;1,44183;-0,03400;1,44183
0,1106;1,87017;-0,03400;1,87017
0,1125;2,30677;-0,03400;2,30677
0,1141;2,73825;-0,03399;2,73825
0,1156;3,15204;-0,03399;3,15204
0,1172;3,59400;-0,03399;3,59400
0,1185;4,00348;-0,03399;4,00348
0,1198;4,43461;-0,03398;4,43461
0,1211;4,88681;-0,03398;4,88681
0,1222;5,28954;-0,03398;5,28954
0,1233;5,70345;-0,03398;5,70345
0,1245;6,12434;-0,03398;6,12434
0,1256;6,54732;-0,03398;6,54732
0,1267;6,96751;-0,03397;6,96751
0,1279;7,38060;-0,03397;7,38060
0,1290;7,78345;-0,03396;7,78345
0,1303;8,23774;-0,03395;8,23774
0,1316;8,67353;-0,03395;8,67353
0,1329;9,08988;-0,03394;9,08988
0,1344;9,54173;-0,03393;9,54173
0,1359;9,96902;-0,03392;9,96902
0,1374;10,37385;-0,03392;10,37385
0,1391;10,80719;-0,03391;10,80719
0,1408;11,22354;-0,03389;11,22354
0,1425;11,62918;-0,03387;11,62918
0,1444;12,07324;-0,03385;12,07324
0,1462;12,51426;-0,03384;12,51426
0,1481;12,95575;-0,03382;12,95575
0,1498;13,35604;-0,03380;13,35604
0,1515;13,76075;-0,03377;13,76075
0,1532;14,17035;-0,03374;14,17035
0,1549;14,58460;-0,03372;14,58460
0,1566;15,00293;-0,03369;15,00293
0,1583;15,42522;-0,03366;15,42522
0,1600;15,85158;-0,03366;15,85158
0,1616;16,28178;-0,03362;16,28178
0,1633;16,71489;-0,03359;16,71489
0,1650;17,15009;-0,03355;17,15009
0,1667;17,58716;-0,03351;17,58716
0,1684;18,02598;-0,03347;18,02598
0,1701;18,46700;-0,03342;18,46700
0,1718;18,90989;-0,03337;18,90989
0,1735;19,35406;-0,03333;19,35406
0,1752;19,79916;-0,03327;19,79916
0,1769;20,24496;-0,03327;20,24496
0,1785;20,69215;-0,03323;20,69215
0,1802;21,14098;-0,03317;21,14098
0,1817;21,54115;-0,03311;21,54115
0,1832;21,94213;-0,03305;21,94213
0,1847;22,34335;-0,03298;22,34335
0,1862;22,74468;-0,03298;22,74468
0,1877;23,14637;-0,03292;23,14637
0,1892;23,54840;-0,03285;23,54840
0,1907;23,95102;-0,03278;23,95102
0,1922;24,35386;-0,03271;24,35386
0,1937;24,75659;-0,03271;24,75659
0,1953;25,15886;-0,03263;25,15886
0,1968;25,56066;-0,03255;25,56066
0,1983;25,96211;-0,03248;25,96211
0,1998;26,36333;-0,03239;26,36333
0,2013;26,76455;-0,03239;26,76455
0,2028;27,16518;-0,03231;27,16518
0,2043;27,56535;-0,03222;27,56535
0,2060;28,01453;-0,03212;28,01453
0,2076;28,46254;-0,03203;28,46254
0,2093;28,90938;-0,03194;28,90938
0,2110;29,35495;-0,03185;29,35495
0,2127;29,79900;-0,03174;29,79900
0,2144;30,24119;-0,03174;30,24119
0,2161;30,68140;-0,03164;30,68140
0,2178;31,11952;-0,03154;31,11952
0,2195;31,55542;-0,03143;31,55542
0,2212;31,98911;-0,03133;31,98911
0,2228;32,42059;-0,03122;32,42059
0,2245;32,84963;-0,03111;32,84963
0,2262;33,27634;-0,03099;33,27634
0,2279;33,70084;-0,03087;33,70084
0,2296;34,12312;-0,03075;34,12312
0,2313;34,54331;-0,03075;34,54331
0,2330;34,96164;-0,03063;34,96164
0,2347;35,37799;-0,03051;35,37799
0,2364;35,79225;-0,03039;35,79225
0,2381;36,20452;-0,03026;36,20452
0,2397;36,61482;-0,03013;36,61482
0,2414;37,02302;-0,03000;37,02302
0,2431;37,42936;-0,02987;37,42936
0,2448;37,83337;-0,02974;37,83337
0,2465;38,23541;-0,02961;38,23541
0,2484;38,67969;-0,02947;38,67969
0,2503;39,12165;-0,02934;39,12165
0,2521;39,56174;-0,02920;39,56174
0,2540;40,00009;-0,02905;40,00009
0,2559;40,43681;-0,02891;40,43681
0,2578;40,87202;-0,02877;40,87202
0,2596;41,30548;-0,02862;41,30548
0,2615;41,73684;-0,02848;41,73684
0,2634;42,16634;-0,02833;42,16634
0,2653;42,59398;-0,02818;42,59398
0,2672;43,01988;-0,02803;43,01988
0,2690;43,44403;-0,02788;43,44403
0,2709;43,86654;-0,02774;43,86654
0,2728;44,28755;-0,02758;44,28755
0,2747;44,70704;-0,02742;44,70704
0,2765;45,12490;-0,02727;45,12490
0,2784;45,54125;-0,02712;45,54125
0,2803;45,95609;-0,02696;45,95609
0,2822;46,36965;-0,02680;46,36965
0,2841;46,78181;-0,02664;46,78181
0,2859;47,19245;-0,02649;47,19245
0,2878;47,60182;-0,02632;47,60182
0,2897;48,00967;-0,02616;48,00967
0,2916;48,41613;-0,02601;48,41613
0,2934;48,82119;-0,02584;48,82119
0,2953;49,22473;-0,02568;49,22473
0,2972;49,62688;-0,02551;49,62688
0,2991;50,02763;-0,02535;50,02763
0,3011;50,46703;-0,02519;50,46703
0,3032;50,90491;-0,02502;50,90491
0,3053;51,34163;-0,02486;51,34163
0,3073;51,77707;-0,02469;51,77707
0,3094;52,21158;-0,02452;52,21158
0,3115;52,64481;-0,02436;52,64481
0,3135;53,07675;-0,02419;53,07675
0,3156;53,50719;-0,02402;53,50719
0,3177;53,93634;-0,02386;53,93634
0,3197;54,36410;-0,02351;54,36410
0,3218;54,79069;-0,02335;54,79069
0,3239;55,21623;-0,02318;55,21623
0,3259;55,64061;-0,02302;55,64061
0,3280;56,06360;-0,02284;56,06360
0,3300;56,48507;-0,02267;56,48507
0,3321;56,90503;-0,02251;56,90503
0,3342;57,32347;-0,02233;57,32347
0,3362;57,74087;-0,02216;57,74087
0,3383;58,15745;-0,02200;58,15745
0,3404;58,57322;-0,02165;58,57322
0,3424;58,98806;-0,02148;58,98806
0,3445;59,40196;-0,02131;59,40196
0,3466;59,81459;-0,02115;59,81459
0,3486;60,22581;-0,02097;60,22581
0,3507;60,63565;-0,02080;60,63565
0,3528;61,04396;-0,02063;61,04396
0,3548;61,45089;-0,02046;61,45089
0,3569;61,85653;-0,02029;61,85653
0,3590;62,26124;-0,02012;62,26124
0,3610;62,66502;-0,01978;62,66502
0,3631;63,06775;-0,01961;63,06775
0,3652;63,46966;-0,01944;63,46966
0,3672;63,87053;-0,01927;63,87053
0,3695;64,30667;-0,01910;64,30667
0,3717;64,74153;-0,01893;64,74153
0,3740;65,17487;-0,01876;65,17487
0,3762;65,60682;-0,01842;65,60682
0,3785;66,03725;-0,01826;66,03725
0,3807;66,46640;-0,01808;66,46640
0,3830;66,89428;-0,01791;66,89428
0,3852;67,32099;-0,01775;67,32099
0,3875;67,74641;-0,01741;67,74641
0,3897;68,17068;-0,01724;68,17068
0,3920;68,59413;-0,01707;68,59413
0,3943;69,01653;-0,01691;69,01653
0,3965;69,43835;-0,01674;69,43835
0,3988;69,85959;-0,01641;69,85959
0,4010;70,28036;-0,01624;70,28036
0,4033;70,70044;-0,01607;70,70044
0,4055;71,11970;-0,01591;71,11970
0,4078;71,53802;-0,01574;71,53802
0,4100;71,95519;-0,01541;71,95519
0,4123;72,37107;-0,01525;72,37107
0,4145;72,78556;-0,01508;72,78556
0,4168;73,19900;-0,01492;73,19900
0,4190;73,61151;-0,01475;73,61151
0,4213;74,02332;-0,01442;74,02332
0,4235;74,43431;-0,01426;74,43431
0,4258;74,84438;-0,01409;74,84438
0,4280;75,25316;-0,01393;75,25316
0,4303;75,66067;-0,01377;75,66067
0,4326;76,06689;-0,01344;76,06689
0,4348;76,47183;-0,01328;76,47183
0,4371;76,87561;-0,01312;76,87561
0,4393;77,27846;-0,01295;77,27846
0,4416;77,68026;-0,01280;77,68026
0,4438;78,08101;-0,01247;78,08101
0,4463;78,51389;-0,01231;78,51389
0,4487;78,94560;-0,01215;78,94560
0,4511;79,37639;-0,01183;79,37639
0,4536;79,80647;-0,01167;79,80647
0,4560;80,23574;-0,01151;80,23574
0,4585;80,66396;-0,01135;80,66396
0,4609;81,09044;-0,01103;81,09044
0,4633;81,51494;-0,01087;81,51494
0,4658;81,93745;-0,01071;81,93745
0,4682;82,35811;-0,01040;82,35811
0,4707;82,77714;-0,01024;82,77714
0,4731;83,19465;-0,01008;83,19465
0,4755;83,61077;-0,00977;83,61077
0,4780;84,02526;-0,00961;84,02526
0,4804;84,43823;-0,00945;84,43823
0,4829;84,85016;-0,00930;84,85016
0,4853;85,26092;-0,00898;85,26092
0,4877;85,67087;-0,00882;85,67087
0,4902;86,08000;-0,00867;86,08000
0,4926;86,48820;-0,00836;86,48820
0,4951;86,89547;-0,00820;86,89547
0,4975;87,30181;-0,00805;87,30181
0,5000;87,70699;-0,00774;87,70699
0,5024;88,11088;-0,00758;88,11088
0,5048;88,51338;-0,00744;88,51338
0,5073;88,91425;-0,00728;88,91425
0,5099;89,34434;-0,00697;89,34434
0,5125;89,77256;-0,00682;89,77256
0,5152;90,19868;-0,00651;90,19868
0,5178;90,62295;-0,00636;90,62295
0,5204;91,04535;-0,00620;91,04535
0,5230;91,46671;-0,00590;91,46671
0,5257;91,88748;-0,00575;91,88748
0,5283;92,30790;-0,00545;92,30790
0,5309;92,72786;-0,00529;92,72786
0,5336;93,14689;-0,00514;93,14689
0,5362;93,56463;-0,00483;93,56463
0,5388;93,98075;-0,00469;93,98075
0,5414;94,39535;-0,00438;94,39535
0,5441;94,80856;-0,00423;94,80856
0,5467;95,22084;-0,00408;95,22084
0,5493;95,63206;-0,00378;95,63206
0,5520;96,04201;-0,00363;96,04201
0,5546;96,45068;-0,00333;96,45068
0,5572;96,85818;-0,00319;96,85818
0,5598;97,26476;-0,00304;97,26476
0,5625;97,67051;-0,00273;97,67051
0,5651;98,07557;-0,00259;98,07557
0,5677;98,48040;-0,00229;98,48040
0,5704;98,88488;-0,00214;98,88488
0,5730;99,28889;-0,00199;99,28889
0,5756;99,69232;-0,00170;99,69232
0,5782;100,09528;-0,00155;100,09528
0,5809;100,49755;-0,00125;100,49755
0,5835;100,89923;-0,00110;100,89923
0,5861;101,30010;-0,00096;101,30010
0,5889;101,72856;-0,00066;101,72856
0,5918;102,15585;-0,00051;102,15585
0,5946;102,58209;-0,00022;102,58209
0,5974;103,00752;-0,00007;103,00752
0,6002;103,43120;0,00023;103,43120
0,6030;103,85186;0,00038;103,85186
0,6058;104,26774;0,00067;104,26774
0,6087;104,67815;0,00081;104,67815
0,6115;105,08333;0,00111;105,08333
0,6143;105,48408;0,00126;105,48408
0,6173;105,90637;0,00155;105,90637
0,6203;106,32237;0,00185;106,32237
0,6233;106,73092;0,00200;106,73092
0,6263;107,13121;0,00228;107,13121
0,6295;107,54628;0,00258;107,54628
0,6327;107,94982;0,00273;107,94982
0,6361;108,36547;0,00302;108,36547
0,6394;108,77123;0,00333;108,77123
0,6430;109,19247;0,00363;109,19247
0,6466;109,61068;0,00392;109,61068
0,6501;110,02948;0,00423;110,02948
0,6537;110,45176;0,00439;110,45176
0,6571;110,85659;0,00469;110,85659
0,6605;111,26607;0,00501;111,26607
0,6639;111,67939;0,00532;111,67939
0,6672;112,09493;0,00563;112,09493
0,6706;112,51000;0,00580;112,51000
0,6740;112,92064;0,00613;112,92064
0,6774;113,32361;0,00645;113,32361
0,6809;113,73868;0,00679;113,73868
0,6845;114,14257;0,00713;114,14257
0,6883;114,55357;0,00748;114,55357
0,6922;114,96491;0,00784;114,96491
0,6963;115,36858;0,00820;115,36858
0,7008;115,77794;0,00876;115,77794
0,7055;116,17834;0,00914;116,17834
0,7104;116,58399;0,00975;116,58399
0,7151;116,99067;0,01015;116,99067
0,7194;117,40633;0,01058;117,40633
0,7234;117,82465;0,01124;117,82465
0,7275;118,23239;0,01169;118,23239
0,7335;118,63419;0,01240;118,63419
1,2565;118,99083;0,61440;118,99083
1,2849;119,40287;0,64966;119,40287
1,2903;119,81689;0,65641;119,81689
1,2952;120,21823;0,66086;120,21823
1,3005;120,62550;0,66748;120,62550
1,3078;121,02637;0,67622;121,02637
1,3196;121,43015;0,68932;121,43015
1,3286;121,83928;0,70037;121,83928
1,3348;122,24609;0,70713;122,24609
1,3414;122,64800;0,71638;122,64800
1,3497;123,05027;0,72598;123,05027
1,3611;123,45393;0,74121;123,45393
1,3699;123,85596;0,75484;123,85596
1,3769;124,26614;0,76647;124,26614
1,3823;124,67260;0,77563;124,67260
1,3874;125,07568;0,78196;125,07568
1,3927;125,48179;0,79180;125,48179
1,3992;125,88463;0,80559;125,88463
1,5757;126,22160;1,41409;126,22160
1,6696;126,26083;2,02666;126,26083
1,7409;126,28271;2,64158;126,28271
1,8010;126,29935;3,24778;126,29935
1,8573;126,31402;3,86697;126,31402
1,9099;126,32694;4,46731;126,32694
1,9625;126,33649;5,07004;126,33649
2,0169;126,34731;5,68023;126,34731
2,0732;126,35627;6,28310;126,35627
2,1333;126,36489;6,88499;126,36489
2,1915;126,37280;7,42375;126,37280
2,1917;126,37292;7,42375;126,37292
