Part protocol
Network name;Part_OP10_MP-002_2020-08-25_14-18-10_0001_OK.csv
Protocol version;2.01.00

Index;Result information;Process values - curve related;Process values - EO related;Evaluation objects settings;Switch signal settings;Device information;Channel-X settings;Channel-Y settings;Cycle control settings;Evaluation settings;Trigger Y settings;Block settings;Measuring curve;Measuring points;Sequence;
Line;10;30;40;70;100;120;150;190;220;240;250;260;270;280;570;



Result information
Date;2020/08/25
Time;14:18:10
Cycle number;1
Total result;OK
Triggered switch signals
Part serial number;0001
Measuring program name;D57-Right
Measuring program number;2
Zero X offset;0,00;mm
Tara Y offset;0,0;kN









Process values - curve related
Block X;116,16;mm;XMIN-X;-0,13;mm
Block Y;4,9;kN;XMIN-Y;0,0;kN
Ref X;-;mm;XMAX-X;116,16;mm
Peak-peak X;116,29;mm;XMAX-Y;4,9;kN
Peak-peak Y;4,9;kN;YMIN-X;-0,13;mm
;;;YMIN-Y;0,0;kN
;;;YMAX-X;116,16;mm
;;;YMAX-Y;4,9;kN

Process values - EO related;Result;Entry;Exit;XMIN-X;XMIN-Y;XMAX-X;XMAX-Y;YMIN-Y;YMIN-X;YMAX-Y;YMAX-X
;;;;mm;kN;mm;kN;kN;mm;kN;mm
EO-01;OK;0,6;0,6;;;;;0,6;115,00;0,6;115,29;;;;;;
EO-02;OK;;116,14;116,12;2,3;116,13;3,0;2,3;116,12;;;;;;;;
EO-03;None;
EO-04;None;
























Evaluation objects settings;Reaction;X reference;Y-Reference;XMin;XMax;YMin;YMax;Entry;Exit;Curve part;Catch zone X;Catch zone Y
EO-01;UNI-BOX;ABSOLUTE;-;115,00;115,50;0,4;2,0;LEFT;RIGHT;ANY;+50%;+50%
EO-02;UNI-BOX;ABSOLUTE;-;115,40;117,10;2,3;3,3;ANY;ABOVE;ANY;+50%;+50%
EO-03;OFF
EO-04;OFF

























Switch signal settings;Channel;Threshold at;;Trigger from;Reference;Latch until
Type S1;OFF
Type S2;OFF

















Device information
Device type;maXYmos BL
Device type number;5867B1011
Device serial number;5182443
Firmware version;2.3.2 (r22473-BL_v2.3.x)
-
-
-
-
-
IP Address;10.0.0.18
Network name;OP10
Profibus address;10
-
-
-
Station name;OP10
Company name;
Comment;











Channel-X settings
Use the settings from global setup;True
Sensor-X type;Â±10V
Unit;mm
Used range from;0,00;mm
Used range to;200,00;mm
Decimal places;XXXX.XX
Scaling by;Teach-In
Point 1;0,00;mm;-0,350;%
Point 2;200,00;mm;10,000;%
Invert signal;FALSE
Filter;20 Hz
Test point;0,00;mm
Tolerance;2,00;mm
Enable sensor test by dig-input;FALSE
Zoom from;100,00;mm
Zoom to;120,00;mm























Channel-Y settings
Use the settings from global setup;True
Sensor-Y type;Strain Gage
Unit;kN
Used range from;0,0;kN
Used range to;20,0;kN
Decimal places;XXXXX.X
Scaling by;Teach-In
Point 1;0,0;kN;-0,01562;%
Point 2;20,0;kN;2,00000;%
Invert signal;FALSE
Filter;1 Hz
Piezo reset;-
Test point;0,0;kN
Tolerance;0,1;kN
Enable sensor test by dig-input;FALSE
Zoom from;0,0;kN
Zoom to;5,0;kN












Cycle control settings
Use the settings from global setup;True
Measuring function;Y (X)
Delta-X;Automatic
START condition;Dig-Input
STOP condition;Dig-Input
Cycle time out;20,00;s
Turning point RIGHT;YMAX
Turning point LEFT;NONE
Cut curve at;NONE










Evaluation settings
Capture only first NOK-EO for statistics;False
Hysteresis-X;0,0;%
Hysteresis-Y;100,0;%






Trigger Y settings
Threshold;1,8;kN
Value X at TRIGGER Y;0,00;mm
Approach from;BELOW






Block settings
Value X at block;XMAX
Block at;0,00;mm







Measuring curve
Number of measuring points;283
Ref. Graph on;ABSOLUTE
Curve segments;0;282;281;283;


Time;X(ABSOLUTE);Y;X (ABSOLUTE)


s;mm;kN;mm
0,0000;-0,13278;-0,04731;-0,13278
0,1104;0,27333;-0,04730;0,27333
0,1134;0,67594;-0,04729;0,67594
0,1156;1,11778;-0,04729;1,11778
0,1173;1,53588;-0,04728;1,53588
0,1188;1,96969;-0,04727;1,96969
0,1202;2,39220;-0,04727;2,39220
0,1215;2,84708;-0,04726;2,84708
0,1226;3,25575;-0,04725;3,25575
0,1237;3,67617;-0,04725;3,67617
0,1248;4,10346;-0,04723;4,10346
0,1260;4,53413;-0,04723;4,53413
0,1271;4,96468;-0,04721;4,96468
0,1282;5,39278;-0,04719;5,39278
0,1294;5,81623;-0,04719;5,81623
0,1305;6,23328;-0,04718;6,23328
0,1316;6,64323;-0,04718;6,64323
0,1327;7,04596;-0,04715;7,04596
0,1340;7,50736;-0,04712;7,50736
0,1354;7,96072;-0,04712;7,96072
0,1367;8,40768;-0,04708;8,40768
0,1380;8,84964;-0,04705;8,84964
0,1393;9,28857;-0,04705;9,28857
0,1406;9,72599;-0,04701;9,72599
0,1419;10,16364;-0,04696;10,16364
0,1432;10,60280;-0,04692;10,60280
0,1446;11,04476;-0,04692;11,04476
0,1459;11,49009;-0,04686;11,49009
0,1472;11,93915;-0,04681;11,93915
0,1485;12,39181;-0,04681;12,39181
0,1498;12,84797;-0,04674;12,84797
0,1511;13,30739;-0,04668;13,30739
0,1524;13,76948;-0,04668;13,76948
0,1538;14,23367;-0,04660;14,23367
0,1551;14,69937;-0,04652;14,69937
0,1564;15,16577;-0,04644;15,16577
0,1577;15,63205;-0,04644;15,63205
0,1590;16,09787;-0,04634;16,09787
0,1603;16,56229;-0,04625;16,56229
0,1616;17,02497;-0,04625;17,02497
0,1630;17,48567;-0,04615;17,48567
0,1643;17,94368;-0,04604;17,94368
0,1656;18,39903;-0,04604;18,39903
0,1669;18,85134;-0,04593;18,85134
0,1682;19,30052;-0,04581;19,30052
0,1695;19,74643;-0,04568;19,74643
0,1708;20,18897;-0,04568;20,18897
0,1722;20,62813;-0,04555;20,62813
0,1735;21,06380;-0,04541;21,06380
0,1748;21,49587;-0,04541;21,49587
0,1761;21,92432;-0,04526;21,92432
0,1774;22,34905;-0,04511;22,34905
0,1787;22,77006;-0,04511;22,77006
0,1800;23,18722;-0,04494;23,18722
0,1814;23,60078;-0,04478;23,60078
0,1827;24,01038;-0,04461;24,01038
0,1840;24,41614;-0,04461;24,41614
0,1853;24,81770;-0,04444;24,81770
0,1868;25,27165;-0,04425;25,27165
0,1883;25,71989;-0,04406;25,71989
0,1898;26,16243;-0,04406;26,16243
0,1913;26,59926;-0,04385;26,59926
0,1928;27,03028;-0,04365;27,03028
0,1943;27,45571;-0,04344;27,45571
0,1958;27,87555;-0,04322;27,87555
0,1973;28,29015;-0,04322;28,29015
0,1988;28,69952;-0,04299;28,69952
0,2003;29,10400;-0,04276;29,10400
0,2020;29,55317;-0,04252;29,55317
0,2037;29,99664;-0,04228;29,99664
0,2054;30,43464;-0,04202;30,43464
0,2071;30,86752;-0,04176;30,86752
0,2088;31,29574;-0,04176;31,29574
0,2105;31,71942;-0,04150;31,71942
0,2121;32,13892;-0,04122;32,13892
0,2138;32,55468;-0,04095;32,55468
0,2155;32,96684;-0,04066;32,96684
0,2172;33,37563;-0,04037;33,37563
0,2189;33,78127;-0,04008;33,78127
0,2206;34,18388;-0,03977;34,18388
0,2225;34,62793;-0,03946;34,62793
0,2243;35,06861;-0,03914;35,06861
0,2262;35,50614;-0,03882;35,50614
0,2281;35,94077;-0,03848;35,94077
0,2300;36,37260;-0,03815;36,37260
0,2319;36,80210;-0,03780;36,80210
0,2337;37,22963;-0,03746;37,22963
0,2356;37,65540;-0,03709;37,65540
0,2375;38,07978;-0,03673;38,07978
0,2394;38,50288;-0,03637;38,50288
0,2412;38,92505;-0,03599;38,92505
0,2431;39,34653;-0,03561;39,34653
0,2450;39,76753;-0,03523;39,76753
0,2469;40,18842;-0,03484;40,18842
0,2488;40,60943;-0,03444;40,60943
0,2506;41,03078;-0,03404;41,03078
0,2525;41,45260;-0,03363;41,45260
0,2544;41,87524;-0,03322;41,87524
0,2563;42,29857;-0,03279;42,29857
0,2581;42,72283;-0,03236;42,72283
0,2600;43,14791;-0,03194;43,14791
0,2619;43,57404;-0,03150;43,57404
0,2638;44,00087;-0,03106;44,00087
0,2657;44,42862;-0,03061;44,42862
0,2675;44,85708;-0,03015;44,85708
0,2694;45,28623;-0,02970;45,28623
0,2713;45,71585;-0,02924;45,71585
0,2732;46,14593;-0,02876;46,14593
0,2750;46,57637;-0,02829;46,57637
0,2769;47,00715;-0,02781;47,00715
0,2788;47,43793;-0,02733;47,43793
0,2807;47,86883;-0,02684;47,86883
0,2825;48,29961;-0,02635;48,29961
0,2844;48,73051;-0,02585;48,73051
0,2863;49,16118;-0,02535;49,16118
0,2882;49,59150;-0,02484;49,59150
0,2901;50,02147;-0,02433;50,02147
0,2919;50,45085;-0,02381;50,45085
0,2938;50,87977;-0,02328;50,87977
0,2957;51,30834;-0,02277;51,30834
0,2976;51,73657;-0,02224;51,73657
0,2994;52,16467;-0,02170;52,16467
0,3013;52,59243;-0,02116;52,59243
0,3032;53,01972;-0,02062;53,01972
0,3051;53,44643;-0,02007;53,44643
0,3070;53,87267;-0,01953;53,87267
0,3088;54,29845;-0,01897;54,29845
0,3107;54,72364;-0,01841;54,72364
0,3126;55,14814;-0,01785;55,14814
0,3145;55,57194;-0,01729;55,57194
0,3163;55,99481;-0,01672;55,99481
0,3182;56,41640;-0,01615;56,41640
0,3201;56,83670;-0,01557;56,83670
0,3220;57,25550;-0,01500;57,25550
0,3239;57,67278;-0,01442;57,67278
0,3257;58,08855;-0,01383;58,08855
0,3276;58,50303;-0,01325;58,50303
0,3295;58,91601;-0,01266;58,91601
0,3314;59,32770;-0,01206;59,32770
0,3332;59,73788;-0,01147;59,73788
0,3351;60,14667;-0,01088;60,14667
0,3370;60,55394;-0,01028;60,55394
0,3389;60,95958;-0,00968;60,95958
0,3407;61,36359;-0,00907;61,36359
0,3426;61,76585;-0,00846;61,76585
0,3445;62,16626;-0,00786;62,16626
0,3466;62,60426;-0,00725;62,60426
0,3486;63,03993;-0,00664;63,03993
0,3507;63,47327;-0,00602;63,47327
0,3528;63,90440;-0,00541;63,90440
0,3548;64,33321;-0,00479;64,33321
0,3569;64,75980;-0,00418;64,75980
0,3590;65,18430;-0,00356;65,18430
0,3610;65,60647;-0,00231;65,60647
0,3631;66,02631;-0,00169;66,02631
0,3652;66,44394;-0,00107;66,44394
0,3672;66,85947;-0,00044;66,85947
0,3693;67,27326;0,00019;67,27326
0,3714;67,68554;0,00081;67,68554
0,3734;68,09642;0,00144;68,09642
0,3755;68,50602;0,00207;68,50602
0,3775;68,91422;0,00270;68,91422
0,3796;69,32126;0,00333;69,32126
0,3817;69,72713;0,00459;69,72713
0,3837;70,13184;0,00522;70,13184
0,3858;70,53550;0,00585;70,53550
0,3879;70,93800;0,00648;70,93800
0,3899;71,33922;0,00711;71,33922
0,3920;71,73927;0,00774;71,73927
0,3943;72,17425;0,00837;72,17425
0,3965;72,60782;0,00900;72,60782
0,3988;73,04035;0,01025;73,04035
0,4010;73,47183;0,01088;73,47183
0,4033;73,90215;0,01150;73,90215
0,4055;74,33095;0,01213;74,33095
0,4078;74,75790;0,01276;74,75790
0,4100;75,18286;0,01401;75,18286
0,4123;75,60561;0,01463;75,60561
0,4145;76,02662;0,01525;76,02662
0,4168;76,44611;0,01587;76,44611
0,4190;76,86420;0,01649;76,86420
0,4213;77,28125;0,01773;77,28125
0,4235;77,69714;0,01834;77,69714
0,4258;78,11197;0,01896;78,11197
0,4280;78,52530;0,01958;78,52530
0,4303;78,93699;0,02019;78,93699
0,4326;79,34694;0,02141;79,34694
0,4348;79,75502;0,02202;79,75502
0,4371;80,16113;0,02262;80,16113
0,4393;80,56526;0,02322;80,56526
0,4416;80,96694;0,02382;80,96694
0,4440;81,39994;0,02503;81,39994
0,4464;81,83107;0,02562;81,83107
0,4489;82,26069;0,02621;82,26069
0,4513;82,68914;0,02740;82,68914
0,4538;83,11643;0,02799;83,11643
0,4562;83,54244;0,02857;83,54244
0,4587;83,96706;0,02974;83,96706
0,4611;84,39016;0,03031;84,39016
0,4635;84,81175;0,03090;84,81175
0,4660;85,23194;0,03147;85,23194
0,4684;85,65073;0,03261;85,65073
0,4709;86,06836;0,03317;86,06836
0,4733;86,48483;0,03374;86,48483
0,4757;86,90048;0,03487;86,90048
0,4782;87,31520;0,03542;87,31520
0,4806;87,72934;0,03598;87,72934
0,4831;88,14278;0,03708;88,14278
0,4855;88,55552;0,03763;88,55552
0,4879;88,96756;0,03816;88,96756
0,4904;89,37902;0,03871;89,37902
0,4928;89,78955;0,03978;89,78955
0,4953;90,19938;0,04032;90,19938
0,4977;90,60840;0,04085;90,60840
0,5001;91,01683;0,04190;91,01683
0,5026;91,42492;0,04242;91,42492
0,5050;91,83289;0,04294;91,83289
0,5075;92,24074;0,04398;92,24074
0,5099;92,64801;0,04449;92,64801
0,5123;93,05458;0,04500;93,05458
0,5148;93,45999;0,04550;93,45999
0,5172;93,86412;0,04650;93,86412
0,5197;94,26732;0,04699;94,26732
0,5221;94,66935;0,04749;94,66935
0,5245;95,07045;0,04848;95,07045
0,5272;95,50077;0,04896;95,50077
0,5298;95,92899;0,04944;95,92899
0,5324;96,35500;0,05040;96,35500
0,5351;96,77903;0,05087;96,77903
0,5377;97,20144;0,05181;97,20144
0,5403;97,62221;0,05228;97,62221
0,5429;98,04159;0,05274;98,04159
0,5456;98,45933;0,05366;98,45933
0,5482;98,87556;0,05411;98,87556
0,5508;99,29005;0,05501;99,29005
0,5535;99,70233;0,05546;99,70233
0,5561;100,11169;0,05590;100,11169
0,5587;100,51768;0,05677;100,51768
0,5613;100,91914;0,05721;100,91914
0,5642;101,34375;0,05807;101,34375
0,5670;101,76184;0,05848;101,76184
0,5698;102,17354;0,05932;102,17354
0,5726;102,57895;0,05974;102,57895
0,5754;102,97900;0,06057;102,97900
0,5784;103,40140;0,06097;103,40140
0,5814;103,82159;0,06178;103,82159
0,5844;104,24202;0,06257;104,24202
0,5874;104,66523;0,06296;104,66523
0,5903;105,06634;0,06374;105,06634
0,5931;105,47268;0,06412;105,47268
0,5959;105,88495;0,06488;105,88495
0,5987;106,30235;0,06526;106,30235
0,6015;106,72219;0,06600;106,72219
0,6043;107,14052;0,06637;107,14052
0,6072;107,55279;0,06710;107,55279
0,6100;107,95448;0,06746;107,95448
0,6130;108,36547;0,06817;108,36547
0,6162;108,77391;0,06854;108,77391
0,6197;109,18455;0,06924;109,18455
0,6239;109,58612;0,07029;109,58612
0,6295;109,98978;0,07131;109,98978
0,6524;110,38984;0,07547;110,38984
0,7021;110,79501;0,08636;110,79501
0,7102;111,20426;0,08910;111,20426
0,7164;111,61642;0,09086;111,61642
0,7221;112,02882;0,09273;112,02882
0,7279;112,42980;0,09473;112,42980
0,7382;112,83242;0,09832;112,83242
1,1193;113,24574;0,57257;113,24574
1,1236;113,65231;0,58062;113,65231
1,1272;114,05691;0,58593;114,05691
1,1309;114,47023;0,59121;114,47023
1,1351;114,88518;0,59646;114,88518
1,1396;115,28675;0,60167;115,28675
1,1458;115,69449;0,61205;115,69449
1,3147;116,09291;1,21857;116,09291
1,3748;116,11281;1,81940;116,11281
1,4218;116,12620;2,43422;116,12620
1,4631;116,13400;3,04884;116,13400
1,5025;116,14657;3,67165;116,14657
1,5400;116,15367;4,27552;116,15367
1,5776;116,16007;4,87245;116,16007
1,5789;116,16030;4,87245;116,16030
