Part protocol
Network name;Part_OP10_MP-002_2020-08-25_14-32-53_0005_OK.csv
Protocol version;2.01.00

Index;Result information;Process values - curve related;Process values - EO related;Evaluation objects settings;Switch signal settings;Device information;Channel-X settings;Channel-Y settings;Cycle control settings;Evaluation settings;Trigger Y settings;Block settings;Measuring curve;Measuring points;Sequence;
Line;10;30;40;70;100;120;150;190;220;240;250;260;270;280;570;



Result information
Date;2020/08/25
Time;14:32:53
Cycle number;5
Total result;OK
Triggered switch signals
Part serial number;0005
Measuring program name;D57-Right
Measuring program number;2
Zero X offset;0,00;mm
Tara Y offset;0,0;kN









Process values - curve related
Block X;116,14;mm;XMIN-X;0,02;mm
Block Y;4,8;kN;XMIN-Y;0,0;kN
Ref X;-;mm;XMAX-X;116,14;mm
Peak-peak X;116,12;mm;XMAX-Y;4,8;kN
Peak-peak Y;4,8;kN;YMIN-X;0,02;mm
;;;YMIN-Y;0,0;kN
;;;YMAX-X;116,14;mm
;;;YMAX-Y;4,8;kN

Process values - EO related;Result;Entry;Exit;XMIN-X;XMIN-Y;XMAX-X;XMAX-Y;YMIN-Y;YMIN-X;YMAX-Y;YMAX-X
;;;;mm;kN;mm;kN;kN;mm;kN;mm
EO-01;OK;0,7;0,7;;;;;0,7;115,00;0,7;115,47;;;;;;
EO-02;OK;;116,12;116,10;2,3;116,11;3,1;2,3;116,10;;;;;;;;
EO-03;None;
EO-04;None;
























Evaluation objects settings;Reaction;X reference;Y-Reference;XMin;XMax;YMin;YMax;Entry;Exit;Curve part;Catch zone X;Catch zone Y
EO-01;UNI-BOX;ABSOLUTE;-;115,00;115,50;0,4;2,0;LEFT;RIGHT;ANY;+50%;+50%
EO-02;UNI-BOX;ABSOLUTE;-;115,40;117,10;2,3;3,3;ANY;ABOVE;ANY;+50%;+50%
EO-03;OFF
EO-04;OFF

























Switch signal settings;Channel;Threshold at;;Trigger from;Reference;Latch until
Type S1;OFF
Type S2;OFF

















Device information
Device type;maXYmos BL
Device type number;5867B1011
Device serial number;5182443
Firmware version;2.3.2 (r22473-BL_v2.3.x)
-
-
-
-
-
IP Address;10.0.0.18
Network name;OP10
Profibus address;10
-
-
-
Station name;OP10
Company name;
Comment;











Channel-X settings
Use the settings from global setup;True
Sensor-X type;Â±10V
Unit;mm
Used range from;0,00;mm
Used range to;200,00;mm
Decimal places;XXXX.XX
Scaling by;Teach-In
Point 1;0,00;mm;-0,350;%
Point 2;200,00;mm;10,000;%
Invert signal;FALSE
Filter;20 Hz
Test point;0,00;mm
Tolerance;2,00;mm
Enable sensor test by dig-input;FALSE
Zoom from;100,00;mm
Zoom to;120,00;mm























Channel-Y settings
Use the settings from global setup;True
Sensor-Y type;Strain Gage
Unit;kN
Used range from;0,0;kN
Used range to;20,0;kN
Decimal places;XXXXX.X
Scaling by;Teach-In
Point 1;0,0;kN;-0,01562;%
Point 2;20,0;kN;2,00000;%
Invert signal;FALSE
Filter;1 Hz
Piezo reset;-
Test point;0,0;kN
Tolerance;0,1;kN
Enable sensor test by dig-input;FALSE
Zoom from;0,0;kN
Zoom to;5,0;kN












Cycle control settings
Use the settings from global setup;True
Measuring function;Y (X)
Delta-X;Automatic
START condition;Dig-Input
STOP condition;Dig-Input
Cycle time out;20,00;s
Turning point RIGHT;YMAX
Turning point LEFT;NONE
Cut curve at;NONE










Evaluation settings
Capture only first NOK-EO for statistics;False
Hysteresis-X;0,0;%
Hysteresis-Y;100,0;%






Trigger Y settings
Threshold;1,8;kN
Value X at TRIGGER Y;0,00;mm
Approach from;BELOW






Block settings
Value X at block;XMAX
Block at;0,00;mm







Measuring curve
Number of measuring points;288
Ref. Graph on;ABSOLUTE
Curve segments;0;287;286;288;


Time;X(ABSOLUTE);Y;X (ABSOLUTE)


s;mm;kN;mm
0,0000;0,01958;-0,04673;0,01958
0,1116;0,42557;-0,04672;0,42557
0,1148;0,82702;-0,04671;0,82702
0,1170;1,23034;-0,04671;1,23034
0,1189;1,64785;-0,04670;1,64785
0,1206;2,08690;-0,04670;2,08690
0,1221;2,52350;-0,04670;2,52350
0,1234;2,93438;-0,04669;2,93438
0,1247;3,36400;-0,04668;3,36400
0,1260;3,80421;-0,04668;3,80421
0,1273;4,24779;-0,04668;4,24779
0,1286;4,68975;-0,04666;4,68975
0,1300;5,12670;-0,04665;5,12670
0,1313;5,55621;-0,04665;5,55621
0,1326;5,97628;-0,04663;5,97628
0,1339;6,38588;-0,04661;6,38588
0,1354;6,84041;-0,04658;6,84041
0,1369;7,28178;-0,04658;7,28178
0,1384;7,71187;-0,04656;7,71187
0,1399;8,13310;-0,04654;8,13310
0,1414;8,54747;-0,04650;8,54747
0,1429;8,95684;-0,04647;8,95684
0,1444;9,36318;-0,04647;9,36318
0,1459;9,76812;-0,04644;9,76812
0,1474;10,17307;-0,04639;10,17307
0,1489;10,57871;-0,04635;10,57871
0,1504;10,98563;-0,04630;10,98563
0,1519;11,39395;-0,04630;11,39395
0,1534;11,80355;-0,04625;11,80355
0,1549;12,21373;-0,04619;12,21373
0,1564;12,62379;-0,04613;12,62379
0,1579;13,03292;-0,04606;13,03292
0,1594;13,44019;-0,04606;13,44019
0,1609;13,84479;-0,04600;13,84479
0,1624;14,24589;-0,04593;14,24589
0,1641;14,69239;-0,04584;14,69239
0,1658;15,13295;-0,04576;15,13295
0,1675;15,56722;-0,04568;15,56722
0,1692;15,99486;-0,04558;15,99486
0,1709;16,41575;-0,04558;16,41575
0,1726;16,83000;-0,04548;16,83000
0,1743;17,23762;-0,04538;17,23762
0,1760;17,63896;-0,04527;17,63896
0,1778;18,07789;-0,04516;18,07789
0,1797;18,50995;-0,04504;18,50995
0,1816;18,93608;-0,04492;18,93608
0,1835;19,35674;-0,04479;19,35674
0,1853;19,77274;-0,04466;19,77274
0,1872;20,18443;-0,04451;20,18443
0,1891;20,59263;-0,04437;20,59263
0,1910;20,99781;-0,04421;20,99781
0,1929;21,40077;-0,04406;21,40077
0,1947;21,80199;-0,04390;21,80199
0,1968;22,24185;-0,04372;22,24185
0,1989;22,68055;-0,04356;22,68055
0,2009;23,11855;-0,04337;23,11855
0,2030;23,55597;-0,04299;23,55597
0,2051;23,99315;-0,04280;23,99315
0,2071;24,43057;-0,04258;24,43057
0,2092;24,86845;-0,04238;24,86845
0,2113;25,30715;-0,04216;25,30715
0,2133;25,74689;-0,04194;25,74689
0,2152;26,14753;-0,04170;26,14753
0,2171;26,54887;-0,04147;26,54887
0,2190;26,95090;-0,04123;26,95090
0,2208;27,35375;-0,04098;27,35375
0,2227;27,75729;-0,04072;27,75729
0,2246;28,16189;-0,04046;28,16189
0,2265;28,56741;-0,04020;28,56741
0,2283;28,97398;-0,03993;28,97398
0,2302;29,38137;-0,03964;29,38137
0,2321;29,78980;-0,03935;29,78980
0,2340;30,19905;-0,03907;30,19905
0,2358;30,60900;-0,03876;30,60900
0,2377;31,01976;-0,03846;31,01976
0,2396;31,43123;-0,03815;31,43123
0,2415;31,84338;-0,03784;31,84338
0,2434;32,25613;-0,03750;32,25613
0,2452;32,66945;-0,03718;32,66945
0,2471;33,08312;-0,03684;33,08312
0,2490;33,49726;-0,03649;33,49726
0,2509;33,91175;-0,03615;33,91175
0,2527;34,32658;-0,03579;34,32658
0,2546;34,74177;-0,03543;34,74177
0,2565;35,15684;-0,03507;35,15684
0,2584;35,57179;-0,03469;35,57179
0,2603;35,98640;-0,03431;35,98640
0,2621;36,40042;-0,03393;36,40042
0,2640;36,81386;-0,03353;36,81386
0,2659;37,22648;-0,03313;37,22648
0,2678;37,63829;-0,03273;37,63829
0,2696;38,04917;-0,03233;38,04917
0,2715;38,45912;-0,03191;38,45912
0,2734;38,86779;-0,03149;38,86779
0,2753;39,27529;-0,03107;39,27529
0,2772;39,68128;-0,03063;39,68128
0,2790;40,08587;-0,03020;40,08587
0,2809;40,48861;-0,02975;40,48861
0,2828;40,88959;-0,02931;40,88959
0,2848;41,32841;-0,02886;41,32841
0,2869;41,76443;-0,02840;41,76443
0,2890;42,19777;-0,02794;42,19777
0,2910;42,62855;-0,02747;42,62855
0,2931;43,05689;-0,02652;43,05689
0,2952;43,48290;-0,02604;43,48290
0,2972;43,90682;-0,02555;43,90682
0,2993;44,32875;-0,02506;44,32875
0,3014;44,74860;-0,02456;44,74860
0,3034;45,16657;-0,02406;45,16657
0,3055;45,58269;-0,02356;45,58269
0,3076;45,99706;-0,02305;45,99706
0,3096;46,41004;-0,02254;46,41004
0,3117;46,82173;-0,02202;46,82173
0,3138;47,23214;-0,02098;47,23214
0,3158;47,64174;-0,02045;47,64174
0,3179;48,05053;-0,01992;48,05053
0,3200;48,45908;-0,01939;48,45908
0,3220;48,86728;-0,01885;48,86728
0,3241;49,27571;-0,01830;49,27571
0,3262;49,68415;-0,01776;49,68415
0,3282;50,09270;-0,01721;50,09270
0,3303;50,50160;-0,01666;50,50160
0,3323;50,91062;-0,01610;50,91062
0,3344;51,31987;-0,01498;51,31987
0,3365;51,72958;-0,01442;51,72958
0,3385;52,13965;-0,01385;52,13965
0,3406;52,55029;-0,01328;52,55029
0,3427;52,96140;-0,01271;52,96140
0,3447;53,37298;-0,01214;53,37298
0,3468;53,78479;-0,01156;53,78479
0,3489;54,19683;-0,01098;54,19683
0,3509;54,60911;-0,01040;54,60911
0,3530;55,02139;-0,00981;55,02139
0,3551;55,43355;-0,00864;55,43355
0,3571;55,84512;-0,00806;55,84512
0,3592;56,25612;-0,00746;56,25612
0,3613;56,66607;-0,00687;56,66607
0,3633;57,07485;-0,00627;57,07485
0,3654;57,48224;-0,00568;57,48224
0,3675;57,88834;-0,00508;57,88834
0,3695;58,29317;-0,00448;58,29317
0,3716;58,69683;-0,00388;58,69683
0,3737;59,09921;-0,00328;59,09921
0,3757;59,50032;-0,00208;59,50032
0,3780;59,93622;-0,00147;59,93622
0,3802;60,37026;-0,00087;60,37026
0,3825;60,80268;-0,00026;60,80268
0,3847;61,23311;0,00034;61,23311
0,3870;61,66180;0,00155;61,66180
0,3892;62,08851;0,00216;62,08851
0,3915;62,51312;0,00277;62,51312
0,3937;62,93564;0,00338;62,93564
0,3960;63,35594;0,00399;63,35594
0,3982;63,77416;0,00520;63,77416
0,4005;64,19027;0,00580;64,19027
0,4028;64,60406;0,00641;64,60406
0,4050;65,01564;0,00701;65,01564
0,4073;65,42489;0,00763;65,42489
0,4095;65,83181;0,00884;65,83181
0,4118;66,23652;0,00944;66,23652
0,4140;66,63902;0,01004;66,63902
0,4163;67,03966;0,01064;67,03966
0,4187;67,47172;0,01124;67,47172
0,4211;67,90192;0,01245;67,90192
0,4236;68,33049;0,01305;68,33049
0,4260;68,75732;0,01364;68,75732
0,4285;69,18251;0,01484;69,18251
0,4309;69,60596;0,01543;69,60596
0,4334;70,02778;0,01602;70,02778
0,4358;70,44809;0,01721;70,44809
0,4382;70,86712;0,01779;70,86712
0,4407;71,28510;0,01838;71,28510
0,4431;71,70179;0,01896;71,70179
0,4456;72,11733;0,02013;72,11733
0,4480;72,53217;0,02071;72,53217
0,4504;72,94630;0,02129;72,94630
0,4529;73,35998;0,02244;73,35998
0,4553;73,77307;0,02301;73,77307
0,4578;74,18546;0,02357;74,18546
0,4602;74,59739;0,02470;74,59739
0,4626;75,00885;0,02527;75,00885
0,4651;75,41984;0,02583;75,41984
0,4675;75,83061;0,02639;75,83061
0,4700;76,24113;0,02750;76,24113
0,4724;76,65155;0,02806;76,65155
0,4748;77,06196;0,02860;77,06196
0,4773;77,47214;0,02969;77,47214
0,4797;77,88174;0,03023;77,88174
0,4822;78,29053;0,03078;78,29053
0,4846;78,69814;0,03184;78,69814
0,4870;79,10472;0,03238;79,10472
0,4895;79,51013;0,03291;79,51013
0,4919;79,91402;0,03343;79,91402
0,4944;80,31652;0,03448;80,31652
0,4968;80,71739;0,03500;80,71739
0,4994;81,14724;0,03551;81,14724
0,5021;81,57511;0,03653;81,57511
0,5047;82,00147;0,03704;82,00147
0,5073;82,42620;0,03804;82,42620
0,5100;82,84942;0,03854;82,84942
0,5126;83,27101;0,03904;83,27101
0,5152;83,69097;0,04002;83,69097
0,5178;84,10929;0,04051;84,10929
0,5205;84,52634;0,04148;84,52634
0,5231;84,94211;0,04196;84,94211
0,5257;85,35695;0,04243;85,35695
0,5283;85,77085;0,04338;85,77085
0,5310;86,18429;0,04385;86,18429
0,5336;86,59703;0,04477;86,59703
0,5362;87,00884;0,04523;87,00884
0,5389;87,41972;0,04568;87,41972
0,5415;87,82944;0,04659;87,82944
0,5441;88,23787;0,04703;88,23787
0,5467;88,64526;0,04792;88,64526
0,5494;89,05160;0,04836;89,05160
0,5520;89,45689;0,04879;89,45689
0,5546;89,86090;0,04965;89,86090
0,5573;90,26375;0,05008;90,26375
0,5599;90,66532;0,05092;90,66532
0,5625;91,06619;0,05134;91,06619
0,5651;91,46636;0,05175;91,46636
0,5680;91,89423;0,05258;91,89423
0,5708;92,32117;0,05298;92,32117
0,5736;92,74707;0,05379;92,74707
0,5764;93,17203;0,05419;93,17203
0,5792;93,59559;0,05497;93,59559
0,5820;94,01800;0,05536;94,01800
0,5849;94,43912;0,05613;94,43912
0,5877;94,85919;0,05651;94,85919
0,5905;95,27799;0,05726;95,27799
0,5933;95,69538;0,05764;95,69538
0,5961;96,11162;0,05837;96,11162
0,5989;96,52645;0,05874;96,52645
0,6018;96,94024;0,05946;96,94024
0,6046;97,35333;0,05982;97,35333
0,6074;97,76608;0,06053;97,76608
0,6102;98,17870;0,06087;98,17870
0,6130;98,59098;0,06157;98,59098
0,6158;99,00290;0,06191;99,00290
0,6187;99,41425;0,06258;99,41425
0,6215;99,82454;0,06292;99,82454
0,6243;100,23368;0,06358;100,23368
0,6271;100,64165;0,06391;100,64165
0,6299;101,04857;0,06456;101,04857
0,6327;101,45433;0,06487;101,45433
0,6355;101,85892;0,06551;101,85892
0,6384;102,26212;0,06581;102,26212
0,6412;102,66392;0,06643;102,66392
0,6440;103,06432;0,06674;103,06432
0,6470;103,49021;0,06735;103,49021
0,6500;103,91518;0,06794;103,91518
0,6530;104,33991;0,06824;104,33991
0,6560;104,76487;0,06882;104,76487
0,6590;105,19041;0,06911;105,19041
0,6620;105,61643;0,06968;105,61643
0,6650;106,04267;0,07024;106,04267
0,6680;106,46856;0,07053;106,46856
0,6710;106,89178;0,07107;106,89178
0,6740;107,30778;0,07135;107,30778
0,6770;107,71214;0,07189;107,71214
0,6802;108,12488;0,07242;108,12488
0,6836;108,53727;0,07295;108,53727
0,6874;108,95514;0,07347;108,95514
0,6917;109,36765;0,07399;109,36765
0,6973;109,77562;0,07476;109,77562
0,7105;110,17707;0,07653;110,17707
0,7679;110,58352;0,08549;110,58352
0,7760;110,99266;0,08751;110,99266
0,7818;111,39748;0,08883;111,39748
0,7869;111,80568;0,09023;111,80568
0,7916;112,20632;0,09122;112,20632
0,7966;112,60719;0,09280;112,60719
0,8045;113,00829;0,09507;113,00829
1,2816;113,41568;0,65477;113,41568
1,2876;113,82888;0,66087;113,82888
1,2923;114,24582;0,66685;114,24582
1,2966;114,64692;0,67079;114,64692
1,3013;115,06245;0,67662;115,06245
1,3069;115,47240;0,68237;115,47240
1,3182;115,87455;0,69371;115,87455
1,5040;116,06556;1,29779;116,06556
1,5679;116,08686;1,90288;116,08686
1,6167;116,10211;2,50691;116,10211
1,6599;116,11456;3,11366;116,11456
1,7012;116,12352;3,73107;116,12352
1,7406;116,13179;4,33282;116,13179
1,7706;116,13784;4,78876;116,13784
1,7708;116,13796;4,78876;116,13796
