Part protocol
Network name;Part_OP10_MP-001_2020-08-26_15-21-28_0024_OK.csv
Protocol version;2.01.00

Index;Result information;Process values - curve related;Process values - EO related;Evaluation objects settings;Switch signal settings;Device information;Channel-X settings;Channel-Y settings;Cycle control settings;Evaluation settings;Trigger Y settings;Block settings;Measuring curve;Measuring points;Sequence;
Line;10;30;40;70;100;120;150;190;220;240;250;260;270;280;600;



Result information
Date;2020/08/26
Time;15:21:28
Cycle number;24
Total result;OK
Triggered switch signals
Part serial number;0024
Measuring program name;D57-Left
Measuring program number;1
Zero X offset;0,00;mm
Tara Y offset;0,0;kN









Process values - curve related
Block X;126,42;mm;XMIN-X;-0,17;mm
Block Y;7,6;kN;XMIN-Y;0,0;kN
Ref X;-;mm;XMAX-X;126,42;mm
Peak-peak X;126,58;mm;XMAX-Y;7,6;kN
Peak-peak Y;7,7;kN;YMIN-X;0,25;mm
;;;YMIN-Y;0,0;kN
;;;YMAX-X;126,42;mm
;;;YMAX-Y;7,6;kN

Process values - EO related;Result;Entry;Exit;XMIN-X;XMIN-Y;XMAX-X;XMAX-Y;YMIN-Y;YMIN-X;YMAX-Y;YMAX-X
;;;;mm;kN;mm;kN;kN;mm;kN;mm
EO-01;OK;0,7;0,8;;;;;0,7;124,50;0,8;125,58;;;;;;
EO-02;OK;126,37;126,39;126,37;4,5;126,38;5,0;;;;;;;;;;
EO-03;None;
EO-04;None;
























Evaluation objects settings;Reaction;X reference;Y-Reference;XMin;XMax;YMin;YMax;Entry;Exit;Curve part;Catch zone X;Catch zone Y
EO-01;UNI-BOX;ABSOLUTE;-;124,50;125,70;0,5;3,0;LEFT;RIGHT;ANY;+50%;+50%
EO-02;UNI-BOX;ABSOLUTE;-;125,80;127,20;4,5;5,5;BELOW;ABOVE;ANY;+50%;+50%
EO-03;OFF
EO-04;OFF

























Switch signal settings;Channel;Threshold at;;Trigger from;Reference;Latch until
Type S1;OFF
Type S2;OFF

















Device information
Device type;maXYmos BL
Device type number;5867B1011
Device serial number;5182443
Firmware version;2.3.2 (r22473-BL_v2.3.x)
-
-
-
-
-
IP Address;10.0.0.18
Network name;OP10
Profibus address;10
-
-
-
Station name;OP10
Company name;
Comment;











Channel-X settings
Use the settings from global setup;True
Sensor-X type;Â±10V
Unit;mm
Used range from;0,00;mm
Used range to;200,00;mm
Decimal places;XXXX.XX
Scaling by;Teach-In
Point 1;0,00;mm;-0,350;%
Point 2;200,00;mm;10,000;%
Invert signal;FALSE
Filter;20 Hz
Test point;0,00;mm
Tolerance;2,00;mm
Enable sensor test by dig-input;FALSE
Zoom from;110,00;mm
Zoom to;133,11;mm























Channel-Y settings
Use the settings from global setup;True
Sensor-Y type;Strain Gage
Unit;kN
Used range from;0,0;kN
Used range to;20,0;kN
Decimal places;XXXXX.X
Scaling by;Teach-In
Point 1;0,0;kN;-0,01562;%
Point 2;20,0;kN;2,00000;%
Invert signal;FALSE
Filter;1 Hz
Piezo reset;-
Test point;0,0;kN
Tolerance;0,1;kN
Enable sensor test by dig-input;FALSE
Zoom from;0,0;kN
Zoom to;6,0;kN












Cycle control settings
Use the settings from global setup;True
Measuring function;Y (X)
Delta-X;Automatic
START condition;Dig-Input
STOP condition;Dig-Input
Cycle time out;20,00;s
Turning point RIGHT;YMAX
Turning point LEFT;NONE
Cut curve at;NONE










Evaluation settings
Capture only first NOK-EO for statistics;False
Hysteresis-X;0,0;%
Hysteresis-Y;100,0;%






Trigger Y settings
Threshold;1,9;kN
Value X at TRIGGER Y;0,00;mm
Approach from;BELOW






Block settings
Value X at block;XMAX
Block at;0,00;mm







Measuring curve
Number of measuring points;315
Ref. Graph on;ABSOLUTE
Curve segments;0;314;313;315;


Time;X(ABSOLUTE);Y;X (ABSOLUTE)


s;mm;kN;mm
0,0000;-0,16968;-0,03480;-0,16968
0,0871;0,24527;-0,03488;0,24527
0,0911;0,66290;-0,03488;0,66290
0,0939;1,07984;-0,03488;1,07984
0,0961;1,48734;-0,03487;1,48734
0,0982;1,91905;-0,03487;1,91905
0,1001;2,35985;-0,03487;2,35985
0,1018;2,79563;-0,03487;2,79563
0,1033;3,21396;-0,03487;3,21396
0,1048;3,66092;-0,03487;3,66092
0,1061;4,07518;-0,03486;4,07518
0,1074;4,51120;-0,03486;4,51120
0,1087;4,96829;-0,03486;4,96829
0,1098;5,37498;-0,03486;5,37498
0,1110;5,79202;-0,03485;5,79202
0,1121;6,21501;-0,03485;6,21501
0,1132;6,63881;-0,03485;6,63881
0,1143;7,05877;-0,03485;7,05877
0,1155;7,47058;-0,03485;7,47058
0,1166;7,87156;-0,03484;7,87156
0,1179;8,32318;-0,03484;8,32318
0,1192;8,75641;-0,03483;8,75641
0,1205;9,17113;-0,03482;9,17113
0,1220;9,62286;-0,03480;9,62286
0,1235;10,05201;-0,03480;10,05201
0,1250;10,46068;-0,03479;10,46068
0,1267;10,89938;-0,03477;10,89938
0,1284;11,32132;-0,03476;11,32132
0,1301;11,73266;-0,03474;11,73266
0,1318;12,13842;-0,03473;12,13842
0,1335;12,54127;-0,03471;12,54127
0,1352;12,94330;-0,03468;12,94330
0,1369;13,34638;-0,03465;13,34638
0,1386;13,75214;-0,03465;13,75214
0,1402;14,16197;-0,03463;14,16197
0,1419;14,57611;-0,03460;14,57611
0,1436;14,99385;-0,03457;14,99385
0,1453;15,41463;-0,03454;15,41463
0,1470;15,83831;-0,03450;15,83831
0,1487;16,26478;-0,03447;16,26478
0,1504;16,69394;-0,03443;16,69394
0,1521;17,12530;-0,03439;17,12530
0,1538;17,55806;-0,03435;17,55806
0,1554;17,99211;-0,03435;17,99211
0,1571;18,42778;-0,03430;18,42778
0,1588;18,86531;-0,03425;18,86531
0,1605;19,30436;-0,03421;19,30436
0,1622;19,74434;-0,03415;19,74434
0,1639;20,18490;-0,03410;20,18490
0,1656;20,62639;-0,03405;20,62639
0,1673;21,06928;-0,03398;21,06928
0,1690;21,51379;-0,03393;21,51379
0,1707;21,95971;-0,03386;21,95971
0,1723;22,40609;-0,03386;22,40609
0,1740;22,85258;-0,03380;22,85258
0,1757;23,29920;-0,03373;23,29920
0,1774;23,74662;-0,03366;23,74662
0,1791;24,19498;-0,03359;24,19498
0,1808;24,64392;-0,03351;24,64392
0,1825;25,09310;-0,03343;25,09310
0,1842;25,54204;-0,03335;25,54204
0,1859;25,99098;-0,03326;25,99098
0,1876;26,44027;-0,03318;26,44027
0,1892;26,89026;-0,03318;26,89026
0,1907;27,29054;-0,03310;27,29054
0,1924;27,74041;-0,03300;27,74041
0,1941;28,18924;-0,03291;28,18924
0,1958;28,63690;-0,03282;28,63690
0,1975;29,08328;-0,03272;29,08328
0,1992;29,52849;-0,03262;29,52849
0,2009;29,97220;-0,03252;29,97220
0,2026;30,41392;-0,03241;30,41392
0,2043;30,85355;-0,03241;30,85355
0,2060;31,29085;-0,03231;31,29085
0,2076;31,72617;-0,03220;31,72617
0,2093;32,15952;-0,03209;32,15952
0,2110;32,59088;-0,03198;32,59088
0,2127;33,02027;-0,03186;33,02027
0,2144;33,44768;-0,03174;33,44768
0,2161;33,87322;-0,03162;33,87322
0,2178;34,29679;-0,03150;34,29679
0,2195;34,71872;-0,03138;34,71872
0,2212;35,13856;-0,03138;35,13856
0,2228;35,55631;-0,03125;35,55631
0,2245;35,97173;-0,03112;35,97173
0,2262;36,38482;-0,03099;36,38482
0,2279;36,79570;-0,03086;36,79570
0,2296;37,20437;-0,03074;37,20437
0,2313;37,61082;-0,03061;37,61082
0,2330;38,01518;-0,03047;38,01518
0,2347;38,41768;-0,03033;38,41768
0,2364;38,81820;-0,03019;38,81820
0,2382;39,26109;-0,03005;39,26109
0,2401;39,70188;-0,02991;39,70188
0,2420;40,14081;-0,02976;40,14081
0,2439;40,57811;-0,02962;40,57811
0,2458;41,01390;-0,02948;41,01390
0,2476;41,44783;-0,02933;41,44783
0,2495;41,87977;-0,02918;41,87977
0,2514;42,30963;-0,02903;42,30963
0,2533;42,73738;-0,02888;42,73738
0,2551;43,16304;-0,02873;43,16304
0,2570;43,58661;-0,02858;43,58661
0,2589;44,00808;-0,02842;44,00808
0,2608;44,42769;-0,02826;44,42769
0,2626;44,84555;-0,02811;44,84555
0,2645;45,26202;-0,02795;45,26202
0,2664;45,67720;-0,02779;45,67720
0,2683;46,09146;-0,02763;46,09146
0,2702;46,50455;-0,02748;46,50455
0,2720;46,91659;-0,02732;46,91659
0,2739;47,32701;-0,02715;47,32701
0,2758;47,73556;-0,02700;47,73556
0,2777;48,14213;-0,02683;48,14213
0,2795;48,54672;-0,02667;48,54672
0,2814;48,94980;-0,02650;48,94980
0,2833;49,35137;-0,02634;49,35137
0,2852;49,75177;-0,02617;49,75177
0,2872;50,19117;-0,02601;50,19117
0,2893;50,62952;-0,02584;50,62952
0,2914;51,06670;-0,02567;51,06670
0,2934;51,50272;-0,02551;51,50272
0,2955;51,93758;-0,02534;51,93758
0,2976;52,37093;-0,02517;52,37093
0,2996;52,80287;-0,02501;52,80287
0,3017;53,23342;-0,02484;53,23342
0,3038;53,66269;-0,02466;53,66269
0,3058;54,09045;-0,02433;54,09045
0,3079;54,51692;-0,02415;54,51692
0,3100;54,94224;-0,02399;54,94224
0,3120;55,36615;-0,02382;55,36615
0,3141;55,78890;-0,02364;55,78890
0,3162;56,21049;-0,02348;56,21049
0,3182;56,63103;-0,02330;56,63103
0,3203;57,05041;-0,02314;57,05041
0,3224;57,46897;-0,02297;57,46897
0,3244;57,88648;-0,02279;57,88648
0,3265;58,30318;-0,02245;58,30318
0,3285;58,71883;-0,02228;58,71883
0,3306;59,13309;-0,02211;59,13309
0,3327;59,54618;-0,02194;59,54618
0,3347;59,95775;-0,02177;59,95775
0,3368;60,36805;-0,02160;60,36805
0,3389;60,77730;-0,02142;60,77730
0,3409;61,18550;-0,02126;61,18550
0,3430;61,59301;-0,02108;61,59301
0,3451;61,99958;-0,02091;61,99958
0,3471;62,40487;-0,02057;62,40487
0,3492;62,80888;-0,02040;62,80888
0,3513;63,21150;-0,02023;63,21150
0,3533;63,61260;-0,02006;63,61260
0,3554;64,01277;-0,01990;64,01277
0,3576;64,44809;-0,01972;64,44809
0,3599;64,88237;-0,01955;64,88237
0,3622;65,31559;-0,01921;65,31559
0,3644;65,74742;-0,01904;65,74742
0,3667;66,17786;-0,01888;66,17786
0,3689;66,60643;-0,01871;66,60643
0,3712;67,03349;-0,01854;67,03349
0,3734;67,45903;-0,01820;67,45903
0,3757;67,88365;-0,01803;67,88365
0,3779;68,30768;-0,01787;68,30768
0,3802;68,73136;-0,01770;68,73136
0,3824;69,15458;-0,01754;69,15458
0,3847;69,57721;-0,01720;69,57721
0,3869;69,99915;-0,01704;69,99915
0,3892;70,42027;-0,01687;70,42027
0,3914;70,84035;-0,01670;70,84035
0,3937;71,25937;-0,01654;71,25937
0,3959;71,67723;-0,01621;71,67723
0,3982;72,09405;-0,01604;72,09405
0,4005;72,51005;-0,01588;72,51005
0,4027;72,92524;-0,01572;72,92524
0,4050;73,33972;-0,01555;73,33972
0,4072;73,75340;-0,01523;73,75340
0,4095;74,16637;-0,01506;74,16637
0,4117;74,57841;-0,01491;74,57841
0,4140;74,98941;-0,01474;74,98941
0,4162;75,39924;-0,01458;75,39924
0,4185;75,80814;-0,01426;75,80814
0,4207;76,21588;-0,01409;76,21588
0,4230;76,62280;-0,01393;76,62280
0,4252;77,02867;-0,01378;77,02867
0,4275;77,43338;-0,01362;77,43338
0,4297;77,83635;-0,01330;77,83635
0,4320;78,23756;-0,01314;78,23756
0,4344;78,66998;-0,01298;78,66998
0,4369;79,10041;-0,01281;79,10041
0,4393;79,52933;-0,01250;79,52933
0,4418;79,95732;-0,01234;79,95732
0,4442;80,38449;-0,01218;80,38449
0,4466;80,81051;-0,01187;80,81051
0,4491;81,23512;-0,01171;81,23512
0,4515;81,65799;-0,01156;81,65799
0,4540;82,07888;-0,01140;82,07888
0,4564;82,49767;-0,01109;82,49767
0,4588;82,91472;-0,01093;82,91472
0,4613;83,33025;-0,01078;83,33025
0,4637;83,74428;-0,01047;83,74428
0,4662;84,15667;-0,01031;84,15667
0,4686;84,56731;-0,01016;84,56731
0,4710;84,97633;-0,00985;84,97633
0,4735;85,38360;-0,00969;85,38360
0,4759;85,78947;-0,00955;85,78947
0,4784;86,19395;-0,00939;86,19395
0,4808;86,59715;-0,00908;86,59715
0,4832;86,99941;-0,00894;86,99941
0,4857;87,40087;-0,00878;87,40087
0,4881;87,80150;-0,00847;87,80150
0,4908;88,23170;-0,00832;88,23170
0,4934;88,66062;-0,00818;88,66062
0,4960;89,08815;-0,00787;89,08815
0,4986;89,51462;-0,00772;89,51462
0,5013;89,94017;-0,00742;89,94017
0,5039;90,36467;-0,00727;90,36467
0,5065;90,78823;-0,00712;90,78823
0,5092;91,21075;-0,00682;91,21075
0,5118;91,63245;-0,00667;91,63245
0,5144;92,05334;-0,00637;92,05334
0,5170;92,47353;-0,00622;92,47353
0,5197;92,89279;-0,00607;92,89279
0,5223;93,31089;-0,00577;93,31089
0,5249;93,72770;-0,00562;93,72770
0,5276;94,14312;-0,00533;94,14312
0,5302;94,55749;-0,00518;94,55749
0,5328;94,97105;-0,00503;94,97105
0,5354;95,38344;-0,00473;95,38344
0,5381;95,79455;-0,00458;95,79455
0,5407;96,20415;-0,00429;96,20415
0,5433;96,61259;-0,00414;96,61259
0,5459;97,02009;-0,00399;97,02009
0,5486;97,42736;-0,00371;97,42736
0,5512;97,83440;-0,00356;97,83440
0,5538;98,24097;-0,00326;98,24097
0,5565;98,64708;-0,00311;98,64708
0,5591;99,05202;-0,00296;99,05202
0,5617;99,45580;-0,00267;99,45580
0,5643;99,85830;-0,00253;99,85830
0,5670;100,25952;-0,00223;100,25952
0,5696;100,65957;-0,00209;100,65957
0,5724;101,08721;-0,00179;101,08721
0,5752;101,51369;-0,00165;101,51369
0,5781;101,93912;-0,00135;101,93912
0,5809;102,36338;-0,00121;102,36338
0,5837;102,78683;-0,00092;102,78683
0,5865;103,20958;-0,00077;103,20958
0,5893;103,63024;-0,00047;103,63024
0,5921;104,04647;-0,00033;104,04647
0,5949;104,45572;-0,00004;104,45572
0,5978;104,85694;0,00011;104,85694
0,6008;105,27678;0,00040;105,27678
0,6038;105,68964;0,00054;105,68964
0,6068;106,09656;0,00084;106,09656
0,6098;106,49743;0,00099;106,49743
0,6130;106,91541;0,00128;106,91541
0,6162;107,32361;0,00157;107,32361
0,6195;107,74566;0,00187;107,74566
0,6229;108,15887;0,00202;108,15887
0,6263;108,56568;0,00231;108,56568
0,6297;108,96911;0,00262;108,96911
0,6331;109,37184;0,00291;109,37184
0,6364;109,77631;0,00322;109,77631
0,6398;110,18440;0,00337;110,18440
0,6432;110,59679;0,00368;110,59679
0,6466;111,01489;0,00399;111,01489
0,6498;111,41680;0,00430;111,41680
0,6530;111,82722;0,00446;111,82722
0,6562;112,24718;0,00478;112,24718
0,6592;112,65049;0,00511;112,65049
0,6622;113,06009;0,00527;113,06009
0,6652;113,47446;0,00561;113,47446
0,6682;113,89197;0,00594;113,89197
0,6712;114,30983;0,00611;114,30983
0,6742;114,72502;0,00646;114,72502
0,6772;115,13462;0,00663;115,13462
0,6802;115,53630;0,00699;115,53630
0,6834;115,95451;0,00735;115,95451
0,6866;116,36644;0,00752;116,36644
0,6898;116,77674;0,00789;116,77674
0,6930;117,19146;0,00827;117,19146
0,6961;117,61072;0,00846;117,61072
0,6995;118,02835;0,00885;118,02835
0,7037;118,43480;0,00925;118,43480
0,7115;118,83823;0,01029;118,83823
1,2445;119,04938;0,61217;119,04938
1,2740;119,45513;0,64751;119,45513
1,2787;119,86031;0,65426;119,86031
1,2830;120,27410;0,65870;120,27410
1,2873;120,68346;0,66311;120,68346
1,2922;121,08852;0,66964;121,08852
1,2997;121,49475;0,67827;121,49475
1,3123;121,90027;0,69326;121,90027
1,3204;122,30126;0,70186;122,30126
1,3260;122,70841;0,70839;122,70841
1,3313;123,11429;0,71501;123,11429
1,3365;123,52819;0,72175;123,52819
1,3418;123,93628;0,72632;123,93628
1,3474;124,34774;0,73330;124,34774
1,3529;124,75710;0,74045;124,75710
1,3579;125,16961;0,74776;125,16961
1,3630;125,58084;0,75526;125,58084
1,3698;125,98858;0,76295;125,98858
1,5712;126,27375;1,36814;126,27375
1,6613;126,30890;1,98037;126,30890
1,7289;126,32834;2,58580;126,32834
1,7871;126,34417;3,18781;126,34417
1,8415;126,35697;3,79546;126,35697
1,8941;126,37047;4,40134;126,37047
1,9467;126,38025;5,00739;126,38025
2,0011;126,38863;5,61941;126,38863
2,0574;126,39783;6,22363;126,39783
2,1175;126,40597;6,82770;126,40597
2,1832;126,41249;7,43661;126,41249
2,2039;126,41505;7,61661;126,41505
2,2041;126,41517;7,61661;126,41517
