Part protocol
Network name;Part_OP10_MP-002_2020-08-26_10-22-26_0012_OK.csv
Protocol version;2.01.00

Index;Result information;Process values - curve related;Process values - EO related;Evaluation objects settings;Switch signal settings;Device information;Channel-X settings;Channel-Y settings;Cycle control settings;Evaluation settings;Trigger Y settings;Block settings;Measuring curve;Measuring points;Sequence;
Line;10;30;40;70;100;120;150;190;220;240;250;260;270;280;570;



Result information
Date;2020/08/26
Time;10:22:26
Cycle number;12
Total result;OK
Triggered switch signals
Part serial number;0012
Measuring program name;D57-Right
Measuring program number;2
Zero X offset;0,00;mm
Tara Y offset;0,0;kN









Process values - curve related
Block X;116,13;mm;XMIN-X;-0,07;mm
Block Y;4,6;kN;XMIN-Y;0,0;kN
Ref X;-;mm;XMAX-X;116,13;mm
Peak-peak X;116,21;mm;XMAX-Y;4,6;kN
Peak-peak Y;4,9;kN;YMIN-X;0,34;mm
;;;YMIN-Y;0,0;kN
;;;YMAX-X;116,13;mm
;;;YMAX-Y;4,9;kN

Process values - EO related;Result;Entry;Exit;XMIN-X;XMIN-Y;XMAX-X;XMAX-Y;YMIN-Y;YMIN-X;YMAX-Y;YMAX-X
;;;;mm;kN;mm;kN;kN;mm;kN;mm
EO-01;OK;0,7;0,7;;;;;0,7;115,00;0,7;115,14;;;;;;
EO-02;OK;;116,11;116,09;2,3;116,11;3,1;2,3;116,09;;;;;;;;
EO-03;None;
EO-04;None;
























Evaluation objects settings;Reaction;X reference;Y-Reference;XMin;XMax;YMin;YMax;Entry;Exit;Curve part;Catch zone X;Catch zone Y
EO-01;UNI-BOX;ABSOLUTE;-;115,00;115,50;0,4;2,0;LEFT;RIGHT;ANY;+50%;+50%
EO-02;UNI-BOX;ABSOLUTE;-;115,40;117,10;2,3;3,3;ANY;ABOVE;ANY;+50%;+50%
EO-03;OFF
EO-04;OFF

























Switch signal settings;Channel;Threshold at;;Trigger from;Reference;Latch until
Type S1;OFF
Type S2;OFF

















Device information
Device type;maXYmos BL
Device type number;5867B1011
Device serial number;5182443
Firmware version;2.3.2 (r22473-BL_v2.3.x)
-
-
-
-
-
IP Address;10.0.0.18
Network name;OP10
Profibus address;10
-
-
-
Station name;OP10
Company name;
Comment;











Channel-X settings
Use the settings from global setup;True
Sensor-X type;Â±10V
Unit;mm
Used range from;0,00;mm
Used range to;200,00;mm
Decimal places;XXXX.XX
Scaling by;Teach-In
Point 1;0,00;mm;-0,350;%
Point 2;200,00;mm;10,000;%
Invert signal;FALSE
Filter;20 Hz
Test point;0,00;mm
Tolerance;2,00;mm
Enable sensor test by dig-input;FALSE
Zoom from;100,00;mm
Zoom to;120,00;mm























Channel-Y settings
Use the settings from global setup;True
Sensor-Y type;Strain Gage
Unit;kN
Used range from;0,0;kN
Used range to;20,0;kN
Decimal places;XXXXX.X
Scaling by;Teach-In
Point 1;0,0;kN;-0,01562;%
Point 2;20,0;kN;2,00000;%
Invert signal;FALSE
Filter;1 Hz
Piezo reset;-
Test point;0,0;kN
Tolerance;0,1;kN
Enable sensor test by dig-input;FALSE
Zoom from;0,0;kN
Zoom to;5,0;kN












Cycle control settings
Use the settings from global setup;True
Measuring function;Y (X)
Delta-X;Automatic
START condition;Dig-Input
STOP condition;Dig-Input
Cycle time out;20,00;s
Turning point RIGHT;YMAX
Turning point LEFT;NONE
Cut curve at;NONE










Evaluation settings
Capture only first NOK-EO for statistics;False
Hysteresis-X;0,0;%
Hysteresis-Y;100,0;%






Trigger Y settings
Threshold;1,8;kN
Value X at TRIGGER Y;0,00;mm
Approach from;BELOW






Block settings
Value X at block;XMAX
Block at;0,00;mm







Measuring curve
Number of measuring points;287
Ref. Graph on;ABSOLUTE
Curve segments;0;287;286;287;


Time;X(ABSOLUTE);Y;X (ABSOLUTE)


s;mm;kN;mm
0,0000;-0,07493;-0,03631;-0,07493
0,0920;0,33862;-0,03634;0,33862
0,0954;0,76370;-0,03634;0,76370
0,0976;1,16574;-0,03633;1,16574
0,0995;1,57755;-0,03633;1,57755
0,1012;2,00798;-0,03632;2,00798
0,1027;2,43504;-0,03632;2,43504
0,1040;2,83765;-0,03631;2,83765
0,1053;3,25947;-0,03631;3,25947
0,1066;3,69270;-0,03630;3,69270
0,1080;4,13000;-0,03629;4,13000
0,1093;4,56602;-0,03629;4,56602
0,1106;4,99692;-0,03628;4,99692
0,1119;5,42002;-0,03626;5,42002
0,1132;5,83323;-0,03626;5,83323
0,1145;6,23538;-0,03625;6,23538
0,1160;6,68106;-0,03623;6,68106
0,1175;7,11301;-0,03621;7,11301
0,1190;7,53308;-0,03619;7,53308
0,1205;7,94373;-0,03619;7,94373
0,1220;8,34692;-0,03616;8,34692
0,1237;8,79423;-0,03613;8,79423
0,1254;9,23782;-0,03610;9,23782
0,1271;9,68036;-0,03606;9,68036
0,1288;10,12395;-0,03602;10,12395
0,1305;10,57009;-0,03597;10,57009
0,1322;11,01973;-0,03593;11,01973
0,1337;11,42270;-0,03593;11,42270
0,1352;11,82857;-0,03587;11,82857
0,1367;12,23701;-0,03582;12,23701
0,1382;12,64765;-0,03576;12,64765
0,1397;13,05958;-0,03570;13,05958
0,1412;13,47185;-0,03570;13,47185
0,1427;13,88378;-0,03562;13,88378
0,1442;14,29443;-0,03555;14,29443
0,1457;14,70321;-0,03547;14,70321
0,1472;15,10955;-0,03539;15,10955
0,1487;15,51298;-0,03539;15,51298
0,1502;15,91327;-0,03530;15,91327
0,1519;16,35930;-0,03521;16,35930
0,1536;16,80056;-0,03511;16,80056
0,1553;17,23716;-0,03500;17,23716
0,1570;17,66899;-0,03490;17,66899
0,1586;18,09640;-0,03478;18,09640
0,1603;18,51961;-0,03466;18,51961
0,1620;18,93899;-0,03466;18,93899
0,1637;19,35487;-0,03454;19,35487
0,1654;19,76738;-0,03441;19,76738
0,1671;20,17686;-0,03427;20,17686
0,1688;20,58355;-0,03413;20,58355
0,1705;20,98768;-0,03398;20,98768
0,1722;21,38925;-0,03383;21,38925
0,1740;21,83284;-0,03367;21,83284
0,1759;22,27374;-0,03350;22,27374
0,1778;22,71209;-0,03333;22,71209
0,1797;23,14811;-0,03315;23,14811
0,1815;23,58169;-0,03297;23,58169
0,1834;24,01317;-0,03277;24,01317
0,1853;24,44221;-0,03258;24,44221
0,1872;24,86915;-0,03237;24,86915
0,1891;25,29388;-0,03216;25,29388
0,1909;25,71651;-0,03195;25,71651
0,1928;26,13729;-0,03173;26,13729
0,1947;26,55643;-0,03150;26,55643
0,1966;26,97383;-0,03126;26,97383
0,1984;27,38960;-0,03102;27,38960
0,2003;27,80373;-0,03078;27,80373
0,2022;28,21648;-0,03052;28,21648
0,2041;28,62759;-0,03026;28,62759
0,2060;29,03730;-0,02999;29,03730
0,2078;29,44562;-0,02973;29,44562
0,2097;29,85231;-0,02945;29,85231
0,2116;30,25772;-0,02916;30,25772
0,2135;30,66173;-0,02887;30,66173
0,2153;31,06458;-0,02858;31,06458
0,2172;31,46638;-0,02827;31,46638
0,2191;31,86701;-0,02796;31,86701
0,2212;32,30688;-0,02764;32,30688
0,2232;32,74604;-0,02732;32,74604
0,2253;33,18474;-0,02700;33,18474
0,2274;33,62308;-0,02666;33,62308
0,2294;34,06132;-0,02632;34,06132
0,2315;34,49943;-0,02597;34,49943
0,2335;34,93755;-0,02526;34,93755
0,2356;35,37555;-0,02489;35,37555
0,2377;35,81355;-0,02452;35,81355
0,2397;36,25131;-0,02414;36,25131
0,2418;36,68908;-0,02376;36,68908
0,2439;37,12696;-0,02338;37,12696
0,2459;37,56473;-0,02298;37,56473
0,2480;38,00226;-0,02258;38,00226
0,2501;38,43945;-0,02217;38,43945
0,2521;38,87617;-0,02177;38,87617
0,2542;39,31242;-0,02092;39,31242
0,2563;39,74833;-0,02050;39,74833
0,2583;40,18388;-0,02006;40,18388
0,2604;40,61897;-0,01963;40,61897
0,2625;41,05359;-0,01918;41,05359
0,2645;41,48752;-0,01873;41,48752
0,2666;41,92051;-0,01828;41,92051
0,2687;42,35246;-0,01782;42,35246
0,2707;42,78336;-0,01735;42,78336
0,2728;43,21321;-0,01689;43,21321
0,2749;43,64190;-0,01593;43,64190
0,2769;44,06931;-0,01545;44,06931
0,2790;44,49532;-0,01496;44,49532
0,2810;44,91981;-0,01447;44,91981
0,2831;45,34280;-0,01397;45,34280
0,2852;45,76415;-0,01347;45,76415
0,2872;46,18365;-0,01297;46,18365
0,2893;46,60139;-0,01246;46,60139
0,2914;47,01739;-0,01194;47,01739
0,2934;47,43153;-0,01143;47,43153
0,2955;47,84357;-0,01039;47,84357
0,2976;48,25375;-0,00986;48,25375
0,2996;48,66196;-0,00932;48,66196
0,3017;49,06818;-0,00879;49,06818
0,3038;49,47266;-0,00825;49,47266
0,3058;49,87527;-0,00770;49,87527
0,3079;50,27602;-0,00717;50,27602
0,3101;50,71123;-0,00661;50,71123
0,3124;51,14457;-0,00551;51,14457
0,3147;51,57582;-0,00495;51,57582
0,3169;52,00556;-0,00439;52,00556
0,3192;52,43355;-0,00383;52,43355
0,3214;52,86014;-0,00326;52,86014
0,3237;53,28533;-0,00212;53,28533
0,3259;53,70948;-0,00155;53,70948
0,3282;54,13282;-0,00097;54,13282
0,3304;54,55545;-0,00039;54,55545
0,3327;54,97750;0,00018;54,97750
0,3349;55,39898;0,00135;55,39898
0,3372;55,81975;0,00193;55,81975
0,3394;56,23994;0,00252;56,23994
0,3417;56,65920;0,00311;56,65920
0,3439;57,07776;0,00370;57,07776
0,3462;57,49562;0,00489;57,49562
0,3484;57,91325;0,00548;57,91325
0,3507;58,33077;0,00607;58,33077
0,3530;58,74828;0,00667;58,74828
0,3552;59,16591;0,00726;59,16591
0,3575;59,58354;0,00847;59,58354
0,3597;60,00105;0,00907;60,00105
0,3620;60,41833;0,00967;60,41833
0,3642;60,83527;0,01027;60,83527
0,3665;61,25185;0,01087;61,25185
0,3687;61,66820;0,01208;61,66820
0,3710;62,08420;0,01268;62,08420
0,3732;62,49973;0,01329;62,49973
0,3755;62,91434;0,01389;62,91434
0,3777;63,32789;0,01449;63,32789
0,3800;63,74029;0,01571;63,74029
0,3822;64,15175;0,01631;64,15175
0,3845;64,56216;0,01691;64,56216
0,3867;64,97164;0,01751;64,97164
0,3890;65,37996;0,01811;65,37996
0,3913;65,78688;0,01932;65,78688
0,3935;66,19264;0,01992;66,19264
0,3958;66,59688;0,02052;66,59688
0,3980;66,99996;0,02112;66,99996
0,4003;67,40176;0,02172;67,40176
0,4025;67,80240;0,02292;67,80240
0,4050;68,23505;0,02352;68,23505
0,4074;68,66641;0,02411;68,66641
0,4098;69,09650;0,02470;69,09650
0,4123;69,52530;0,02589;69,52530
0,4147;69,95282;0,02648;69,95282
0,4172;70,37953;0,02707;70,37953
0,4196;70,80496;0,02825;70,80496
0,4220;71,22911;0,02883;71,22911
0,4245;71,65139;0,02942;71,65139
0,4269;72,07170;0,03058;72,07170
0,4294;72,48991;0,03116;72,48991
0,4318;72,90603;0,03173;72,90603
0,4342;73,32029;0,03231;73,32029
0,4367;73,73303;0,03345;73,73303
0,4391;74,14449;0,03403;74,14449
0,4416;74,55455;0,03459;74,55455
0,4440;74,96345;0,03572;74,96345
0,4464;75,37131;0,03628;75,37131
0,4489;75,77823;0,03684;75,77823
0,4513;76,18445;0,03795;76,18445
0,4538;76,59009;0,03851;76,59009
0,4562;76,99538;0,03905;76,99538
0,4587;77,39998;0,03960;77,39998
0,4611;77,80364;0,04069;77,80364
0,4635;78,20614;0,04123;78,20614
0,4660;78,60724;0,04176;78,60724
0,4686;79,03767;0,04283;79,03767
0,4712;79,46659;0,04337;79,46659
0,4739;79,89412;0,04441;79,89412
0,4765;80,32036;0,04494;80,32036
0,4791;80,74497;0,04546;80,74497
0,4817;81,16796;0,04649;81,16796
0,4844;81,58908;0,04700;81,58908
0,4870;82,00881;0,04801;82,00881
0,4896;82,42737;0,04852;82,42737
0,4923;82,84500;0,04902;82,84500
0,4949;83,26181;0,05001;83,26181
0,4975;83,67781;0,05050;83,67781
0,5001;84,09300;0,05148;84,09300
0,5028;84,50725;0,05197;84,50725
0,5054;84,92093;0,05245;84,92093
0,5080;85,33402;0,05340;85,33402
0,5107;85,74676;0,05387;85,74676
0,5133;86,15903;0,05481;86,15903
0,5159;86,57084;0,05527;86,57084
0,5185;86,98196;0,05573;86,98196
0,5212;87,39214;0,05664;87,39214
0,5238;87,80150;0,05709;87,80150
0,5264;88,21005;0,05799;88,21005
0,5291;88,61744;0,05844;88,61744
0,5317;89,02366;0,05887;89,02366
0,5343;89,42884;0,05975;89,42884
0,5369;89,83297;0,06018;89,83297
0,5396;90,23616;0,06104;90,23616
0,5422;90,63820;0,06145;90,63820
0,5448;91,03930;0,06188;91,03930
0,5475;91,43947;0,06271;91,43947
0,5503;91,86734;0,06312;91,86734
0,5531;92,29417;0,06393;92,29417
0,5559;92,71960;0,06434;92,71960
0,5587;93,14305;0,06514;93,14305
0,5615;93,56440;0,06554;93,56440
0,5643;93,98366;0,06631;93,98366
0,5672;94,40106;0,06670;94,40106
0,5700;94,81717;0,06747;94,81717
0,5728;95,23213;0,06785;95,23213
0,5756;95,64603;0,06860;95,64603
0,5784;96,05854;0,06897;96,05854
0,5812;96,46977;0,06970;96,46977
0,5841;96,88030;0,07006;96,88030
0,5869;97,29013;0,07078;97,29013
0,5897;97,69950;0,07114;97,69950
0,5925;98,10863;0,07183;98,10863
0,5953;98,51706;0,07218;98,51706
0,5981;98,92503;0,07287;98,92503
0,6010;99,33195;0,07320;99,33195
0,6038;99,73783;0,07388;99,73783
0,6066;100,14300;0,07421;100,14300
0,6094;100,54725;0,07487;100,54725
0,6122;100,95068;0,07519;100,95068
0,6150;101,35341;0,07583;101,35341
0,6179;101,75568;0,07614;101,75568
0,6207;102,15783;0,07677;102,15783
0,6235;102,56021;0,07709;102,56021
0,6263;102,96271;0,07770;102,96271
0,6291;103,36520;0,07801;103,36520
0,6319;103,76735;0,07861;103,76735
0,6348;104,16939;0,07890;104,16939
0,6376;104,57188;0,07950;104,57188
0,6404;104,97520;0,07978;104,97520
0,6432;105,37921;0,08037;105,37921
0,6460;105,78345;0,08064;105,78345
0,6488;106,18758;0,08121;106,18758
0,6516;106,59043;0,08149;106,59043
0,6547;107,01644;0,08204;107,01644
0,6577;107,43407;0,08232;107,43407
0,6607;107,83925;0,08286;107,83925
0,6639;108,25082;0,08339;108,25082
0,6672;108,65728;0,08392;108,65728
0,6710;109,06036;0,08445;109,06036
0,6757;109,47077;0,08497;109,47077
0,6832;109,87560;0,08599;109,87560
0,7487;110,27647;0,09633;110,27647
0,7592;110,68001;0,09880;110,68001
0,7660;111,08496;0,10016;111,08496
0,7716;111,48653;0,10161;111,48653
0,7769;111,88809;0,10317;111,88809
0,7823;112,29897;0,10483;112,29897
0,7887;112,70287;0,10661;112,70287
1,0690;113,10292;0,39591;113,10292
1,2757;113,51159;0,66919;113,51159
1,2810;113,91432;0,67300;113,91432
1,2856;114,32694;0,67865;114,32694
1,2902;114,73107;0,68237;114,73107
1,2952;115,14125;0,68789;115,14125
1,3018;115,54515;0,69516;115,54515
1,3343;115,94532;0,72666;115,94532
1,4989;116,05753;1,32810;116,05753
1,5628;116,08395;1,93880;116,08395
1,6116;116,09791;2,54322;116,09791
1,6547;116,11107;3,14800;116,11107
1,6960;116,12015;3,76230;116,12015
1,7374;116,12969;4,38912;116,12969
1,7537;116,13365;4,61638;116,13365
1,7711;116,13179;4,89813;116,13179
