Part protocol
Network name;Part_OP10_MP-001_2020-08-26_15-06-38_0020_OK.csv
Protocol version;2.01.00

Index;Result information;Process values - curve related;Process values - EO related;Evaluation objects settings;Switch signal settings;Device information;Channel-X settings;Channel-Y settings;Cycle control settings;Evaluation settings;Trigger Y settings;Block settings;Measuring curve;Measuring points;Sequence;
Line;10;30;40;70;100;120;150;190;220;240;250;260;270;280;600;



Result information
Date;2020/08/26
Time;15:06:38
Cycle number;20
Total result;OK
Triggered switch signals
Part serial number;0020
Measuring program name;D57-Left
Measuring program number;1
Zero X offset;0,00;mm
Tara Y offset;0,0;kN









Process values - curve related
Block X;126,36;mm;XMIN-X;-0,14;mm
Block Y;7,3;kN;XMIN-Y;0,0;kN
Ref X;-;mm;XMAX-X;126,36;mm
Peak-peak X;126,50;mm;XMAX-Y;7,3;kN
Peak-peak Y;7,5;kN;YMIN-X;0,27;mm
;;;YMIN-Y;0,0;kN
;;;YMAX-X;126,36;mm
;;;YMAX-Y;7,5;kN

Process values - EO related;Result;Entry;Exit;XMIN-X;XMIN-Y;XMAX-X;XMAX-Y;YMIN-Y;YMIN-X;YMAX-Y;YMAX-X
;;;;mm;kN;mm;kN;kN;mm;kN;mm
EO-01;OK;0,7;0,8;;;;;0,7;124,50;0,8;125,58;;;;;;
EO-02;OK;126,32;126,33;126,32;4,5;126,33;5,0;;;;;;;;;;
EO-03;None;
EO-04;None;
























Evaluation objects settings;Reaction;X reference;Y-Reference;XMin;XMax;YMin;YMax;Entry;Exit;Curve part;Catch zone X;Catch zone Y
EO-01;UNI-BOX;ABSOLUTE;-;124,50;125,70;0,5;3,0;LEFT;RIGHT;ANY;+50%;+50%
EO-02;UNI-BOX;ABSOLUTE;-;125,80;127,20;4,5;5,5;BELOW;ABOVE;ANY;+50%;+50%
EO-03;OFF
EO-04;OFF

























Switch signal settings;Channel;Threshold at;;Trigger from;Reference;Latch until
Type S1;OFF
Type S2;OFF

















Device information
Device type;maXYmos BL
Device type number;5867B1011
Device serial number;5182443
Firmware version;2.3.2 (r22473-BL_v2.3.x)
-
-
-
-
-
IP Address;10.0.0.18
Network name;OP10
Profibus address;10
-
-
-
Station name;OP10
Company name;
Comment;











Channel-X settings
Use the settings from global setup;True
Sensor-X type;Â±10V
Unit;mm
Used range from;0,00;mm
Used range to;200,00;mm
Decimal places;XXXX.XX
Scaling by;Teach-In
Point 1;0,00;mm;-0,350;%
Point 2;200,00;mm;10,000;%
Invert signal;FALSE
Filter;20 Hz
Test point;0,00;mm
Tolerance;2,00;mm
Enable sensor test by dig-input;FALSE
Zoom from;110,00;mm
Zoom to;133,11;mm























Channel-Y settings
Use the settings from global setup;True
Sensor-Y type;Strain Gage
Unit;kN
Used range from;0,0;kN
Used range to;20,0;kN
Decimal places;XXXXX.X
Scaling by;Teach-In
Point 1;0,0;kN;-0,01562;%
Point 2;20,0;kN;2,00000;%
Invert signal;FALSE
Filter;1 Hz
Piezo reset;-
Test point;0,0;kN
Tolerance;0,1;kN
Enable sensor test by dig-input;FALSE
Zoom from;0,0;kN
Zoom to;6,0;kN












Cycle control settings
Use the settings from global setup;True
Measuring function;Y (X)
Delta-X;Automatic
START condition;Dig-Input
STOP condition;Dig-Input
Cycle time out;20,00;s
Turning point RIGHT;YMAX
Turning point LEFT;NONE
Cut curve at;NONE










Evaluation settings
Capture only first NOK-EO for statistics;False
Hysteresis-X;0,0;%
Hysteresis-Y;100,0;%






Trigger Y settings
Threshold;1,9;kN
Value X at TRIGGER Y;0,00;mm
Approach from;BELOW






Block settings
Value X at block;XMAX
Block at;0,00;mm







Measuring curve
Number of measuring points;317
Ref. Graph on;ABSOLUTE
Curve segments;0;317;316;317;


Time;X(ABSOLUTE);Y;X (ABSOLUTE)


s;mm;kN;mm
0,0000;-0,13977;-0,03485;-0,13977
0,0908;0,26867;-0,03486;0,26867
0,0947;0,68281;-0,03486;0,68281
0,0975;1,09648;-0,03486;1,09648
0,0998;1,50049;-0,03486;1,50049
0,1018;1,92813;-0,03486;1,92813
0,1037;2,36450;-0,03486;2,36450
0,1054;2,79575;-0,03486;2,79575
0,1069;3,20942;-0,03486;3,20942
0,1084;3,65103;-0,03486;3,65103
0,1097;4,06028;-0,03485;4,06028
0,1110;4,49071;-0,03485;4,49071
0,1124;4,94210;-0,03485;4,94210
0,1135;5,34390;-0,03485;5,34390
0,1146;5,75629;-0,03485;5,75629
0,1157;6,17520;-0,03485;6,17520
0,1169;6,59551;-0,03485;6,59551
0,1180;7,01244;-0,03485;7,01244
0,1191;7,42181;-0,03484;7,42181
0,1204;7,88599;-0,03483;7,88599
0,1217;8,33319;-0,03483;8,33319
0,1231;8,76234;-0,03482;8,76234
0,1244;9,17334;-0,03481;9,17334
0,1259;9,62181;-0,03480;9,62181
0,1274;10,04887;-0,03480;10,04887
0,1289;10,45626;-0,03479;10,45626
0,1306;10,89461;-0,03478;10,89461
0,1323;11,31724;-0,03476;11,31724
0,1340;11,73022;-0,03475;11,73022
0,1356;12,13842;-0,03473;12,13842
0,1373;12,54476;-0,03472;12,54476
0,1390;12,95110;-0,03469;12,95110
0,1407;13,35895;-0,03467;13,35895
0,1424;13,77018;-0,03467;13,77018
0,1441;14,18595;-0,03465;14,18595
0,1458;14,60660;-0,03462;14,60660
0,1475;15,03156;-0,03460;15,03156
0,1492;15,46002;-0,03457;15,46002
0,1508;15,89162;-0,03453;15,89162
0,1525;16,32624;-0,03450;16,32624
0,1542;16,76412;-0,03447;16,76412
0,1559;17,20457;-0,03443;17,20457
0,1576;17,64699;-0,03438;17,64699
0,1593;18,09081;-0,03438;18,09081
0,1610;18,53637;-0,03435;18,53637
0,1627;18,98369;-0,03430;18,98369
0,1644;19,43274;-0,03425;19,43274
0,1661;19,88273;-0,03421;19,88273
0,1676;20,28325;-0,03415;20,28325
0,1691;20,68424;-0,03410;20,68424
0,1706;21,08604;-0,03410;21,08604
0,1721;21,48912;-0,03404;21,48912
0,1736;21,89336;-0,03398;21,89336
0,1751;22,29842;-0,03393;22,29842
0,1766;22,70371;-0,03386;22,70371
0,1781;23,10889;-0,03386;23,10889
0,1796;23,51383;-0,03380;23,51383
0,1811;23,91889;-0,03373;23,91889
0,1826;24,32430;-0,03366;24,32430
0,1841;24,72982;-0,03359;24,72982
0,1856;25,13523;-0,03359;25,13523
0,1871;25,54006;-0,03351;25,54006
0,1886;25,94419;-0,03343;25,94419
0,1901;26,34797;-0,03336;26,34797
0,1916;26,75163;-0,03327;26,75163
0,1931;27,15529;-0,03327;27,15529
0,1946;27,55872;-0,03319;27,55872
0,1961;27,96133;-0,03310;27,96133
0,1976;28,36279;-0,03301;28,36279
0,1991;28,76284;-0,03292;28,76284
0,2008;29,21120;-0,03283;29,21120
0,2025;29,65804;-0,03283;29,65804
0,2042;30,10314;-0,03273;30,10314
0,2059;30,54626;-0,03263;30,54626
0,2075;30,98694;-0,03253;30,98694
0,2092;31,42494;-0,03243;31,42494
0,2109;31,86038;-0,03232;31,86038
0,2126;32,29349;-0,03222;32,29349
0,2143;32,72416;-0,03211;32,72416
0,2160;33,15238;-0,03199;33,15238
0,2177;33,57827;-0,03188;33,57827
0,2194;34,00161;-0,03188;34,00161
0,2211;34,42261;-0,03176;34,42261
0,2228;34,84117;-0,03165;34,84117
0,2244;35,25741;-0,03153;35,25741
0,2261;35,67119;-0,03141;35,67119
0,2278;36,08242;-0,03128;36,08242
0,2295;36,49109;-0,03116;36,49109
0,2312;36,89731;-0,03103;36,89731
0,2329;37,30121;-0,03091;37,30121
0,2346;37,70289;-0,03078;37,70289
0,2365;38,14671;-0,03064;38,14671
0,2383;38,58797;-0,03051;38,58797
0,2402;39,02713;-0,03038;39,02713
0,2421;39,46432;-0,03024;39,46432
0,2440;39,89964;-0,03011;39,89964
0,2458;40,33333;-0,02997;40,33333
0,2477;40,76563;-0,02983;40,76563
0,2496;41,19653;-0,02969;41,19653
0,2515;41,62557;-0,02954;41,62557
0,2534;42,05274;-0,02940;42,05274
0,2552;42,47782;-0,02925;42,47782
0,2571;42,90115;-0,02912;42,90115
0,2590;43,32286;-0,02897;43,32286
0,2609;43,74316;-0,02882;43,74316
0,2627;44,16172;-0,02866;44,16172
0,2646;44,57877;-0,02851;44,57877
0,2665;44,99442;-0,02837;44,99442
0,2684;45,40880;-0,02821;45,40880
0,2703;45,82223;-0,02806;45,82223
0,2721;46,23486;-0,02790;46,23486
0,2740;46,64690;-0,02775;46,64690
0,2759;47,05801;-0,02760;47,05801
0,2778;47,46785;-0,02744;47,46785
0,2796;47,87605;-0,02728;47,87605
0,2815;48,28262;-0,02713;48,28262
0,2834;48,68733;-0,02697;48,68733
0,2853;49,09029;-0,02680;49,09029
0,2871;49,49175;-0,02664;49,49175
0,2890;49,89180;-0,02649;49,89180
0,2911;50,33085;-0,02632;50,33085
0,2932;50,76920;-0,02616;50,76920
0,2952;51,20696;-0,02600;51,20696
0,2973;51,64426;-0,02584;51,64426
0,2994;52,08063;-0,02567;52,08063
0,3014;52,51595;-0,02551;52,51595
0,3035;52,95000;-0,02535;52,95000
0,3055;53,38241;-0,02518;53,38241
0,3076;53,81331;-0,02501;53,81331
0,3097;54,24269;-0,02468;54,24269
0,3117;54,67080;-0,02451;54,67080
0,3138;55,09774;-0,02435;55,09774
0,3159;55,52352;-0,02418;55,52352
0,3179;55,94825;-0,02401;55,94825
0,3200;56,37182;-0,02385;56,37182
0,3221;56,79422;-0,02368;56,79422
0,3241;57,21534;-0,02351;57,21534
0,3262;57,63518;-0,02335;57,63518
0,3283;58,05363;-0,02318;58,05363
0,3303;58,47079;-0,02285;58,47079
0,3324;58,88668;-0,02268;58,88668
0,3345;59,30128;-0,02251;59,30128
0,3365;59,71449;-0,02234;59,71449
0,3386;60,12630;-0,02217;60,12630
0,3407;60,53659;-0,02201;60,53659
0,3427;60,94561;-0,02184;60,94561
0,3448;61,35323;-0,02166;61,35323
0,3469;61,75945;-0,02150;61,75945
0,3489;62,16440;-0,02133;62,16440
0,3510;62,56817;-0,02100;62,56817
0,3530;62,97079;-0,02083;62,97079
0,3551;63,37247;-0,02065;63,37247
0,3572;63,77323;-0,02049;63,77323
0,3594;64,20936;-0,02032;64,20936
0,3617;64,64434;-0,02015;64,64434
0,3639;65,07780;-0,01999;65,07780
0,3662;65,50951;-0,01965;65,50951
0,3684;65,93901;-0,01949;65,93901
0,3707;66,36665;-0,01932;66,36665
0,3729;66,79255;-0,01915;66,79255
0,3752;67,21739;-0,01898;67,21739
0,3775;67,64166;-0,01865;67,64166
0,3797;68,06546;-0,01848;68,06546
0,3820;68,48867;-0,01831;68,48867
0,3842;68,91108;-0,01816;68,91108
0,3865;69,33243;-0,01799;69,33243
0,3887;69,75262;-0,01766;69,75262
0,3910;70,17176;-0,01749;70,17176
0,3932;70,58986;-0,01732;70,58986
0,3955;71,00691;-0,01716;71,00691
0,3977;71,42326;-0,01699;71,42326
0,4000;71,83868;-0,01666;71,83868
0,4022;72,25316;-0,01650;72,25316
0,4045;72,66684;-0,01634;72,66684
0,4067;73,07981;-0,01617;73,07981
0,4090;73,49232;-0,01601;73,49232
0,4112;73,90436;-0,01568;73,90436
0,4135;74,31606;-0,01552;74,31606
0,4158;74,72740;-0,01536;74,72740
0,4180;75,13840;-0,01519;75,13840
0,4203;75,54893;-0,01504;75,54893
0,4225;75,95852;-0,01471;75,95852
0,4248;76,36708;-0,01455;76,36708
0,4270;76,77423;-0,01439;76,77423
0,4293;77,17987;-0,01423;77,17987
0,4315;77,58388;-0,01406;77,58388
0,4338;77,98650;-0,01375;77,98650
0,4360;78,38772;-0,01358;78,38772
0,4383;78,78789;-0,01342;78,78789
0,4407;79,22053;-0,01327;79,22053
0,4432;79,65225;-0,01295;79,65225
0,4456;80,08314;-0,01279;80,08314
0,4480;80,51288;-0,01263;80,51288
0,4505;80,94110;-0,01231;80,94110
0,4529;81,36781;-0,01216;81,36781
0,4554;81,79277;-0,01200;81,79277
0,4578;82,21587;-0,01184;82,21587
0,4602;82,63746;-0,01153;82,63746
0,4627;83,05719;-0,01137;83,05719
0,4651;83,47517;-0,01121;83,47517
0,4676;83,89128;-0,01090;83,89128
0,4700;84,30542;-0,01075;84,30542
0,4724;84,71793;-0,01059;84,71793
0,4749;85,12916;-0,01028;85,12916
0,4773;85,53911;-0,01012;85,53911
0,4798;85,94777;-0,00997;85,94777
0,4822;86,35504;-0,00981;86,35504
0,4847;86,76080;-0,00951;86,76080
0,4871;87,16505;-0,00935;87,16505
0,4895;87,56743;-0,00919;87,56743
0,4920;87,96795;-0,00889;87,96795
0,4946;88,39699;-0,00874;88,39699
0,4972;88,82404;-0,00858;88,82404
0,4999;89,24936;-0,00828;89,24936
0,5025;89,67350;-0,00812;89,67350
0,5051;90,09672;-0,00782;90,09672
0,5077;90,51912;-0,00767;90,51912
0,5104;90,94036;-0,00752;90,94036
0,5130;91,36020;-0,00721;91,36020
0,5156;91,77830;-0,00707;91,77830
0,5183;92,19511;-0,00676;92,19511
0,5209;92,61100;-0,00661;92,61100
0,5235;93,02642;-0,00645;93,02642
0,5261;93,44172;-0,00616;93,44172
0,5288;93,85690;-0,00601;93,85690
0,5314;94,27116;-0,00570;94,27116
0,5340;94,68402;-0,00556;94,68402
0,5367;95,09513;-0,00541;95,09513
0,5393;95,50473;-0,00511;95,50473
0,5419;95,91328;-0,00495;95,91328
0,5445;96,32090;-0,00466;96,32090
0,5472;96,72770;-0,00451;96,72770
0,5498;97,13416;-0,00436;97,13416
0,5524;97,54027;-0,00407;97,54027
0,5551;97,94626;-0,00392;97,94626
0,5577;98,35201;-0,00362;98,35201
0,5603;98,75719;-0,00347;98,75719
0,5629;99,16167;-0,00333;99,16167
0,5656;99,56498;-0,00303;99,56498
0,5682;99,96713;-0,00288;99,96713
0,5708;100,36800;-0,00259;100,36800
0,5735;100,76805;-0,00244;100,76805
0,5763;101,19581;-0,00214;101,19581
0,5791;101,62298;-0,00199;101,62298
0,5819;102,04958;-0,00170;102,04958
0,5847;102,47605;-0,00155;102,47605
0,5875;102,90241;-0,00125;102,90241
0,5904;103,32726;-0,00110;103,32726
0,5932;103,74722;-0,00081;103,74722
0,5960;104,15914;-0,00067;104,15914
0,5988;104,56118;-0,00037;104,56118
0,6018;104,97962;-0,00022;104,97962
0,6048;105,38910;0,00007;105,38910
0,6078;105,79079;0,00022;105,79079
0,6110;106,20946;0,00052;106,20946
0,6142;106,61999;0,00081;106,61999
0,6174;107,02308;0,00096;107,02308
0,6208;107,44303;0,00126;107,44303
0,6241;107,85752;0,00156;107,85752
0,6275;108,26852;0,00186;108,26852
0,6309;108,67800;0,00216;108,67800
0,6343;109,08783;0,00231;109,08783
0,6377;109,50045;0,00262;109,50045
0,6410;109,91820;0,00293;109,91820
0,6442;110,31930;0,00324;110,31930
0,6474;110,72809;0,00339;110,72809
0,6506;111,14537;0,00371;111,14537
0,6538;111,56986;0,00403;111,56986
0,6568;111,97399;0,00419;111,97399
0,6598;112,37975;0,00452;112,37975
0,6628;112,78481;0,00486;112,78481
0,6658;113,18801;0,00502;113,18801
0,6688;113,58864;0,00536;113,58864
0,6720;114,01163;0,00570;114,01163
0,6752;114,43228;0,00588;114,43228
0,6784;114,85096;0,00623;114,85096
0,6816;115,26673;0,00659;115,26673
0,6848;115,67889;0,00676;115,67889
0,6880;116,08837;0,00713;116,08837
0,6912;116,49715;0,00751;116,49715
0,6944;116,90931;0,00770;116,90931
0,6975;117,32916;0,00808;117,32916
0,7007;117,74865;0,00848;117,74865
0,7041;118,15115;0,00887;118,15115
0,7086;118,55295;0,00929;118,55295
0,7691;118,95300;0,01899;118,95300
1,2540;119,05624;0,61923;119,05624
1,2782;119,46351;0,64726;119,46351
1,2822;119,87730;0,65400;119,87730
1,2854;120,28946;0,65622;120,28946
1,2884;120,69382;0,66063;120,69382
1,2916;121,10016;0,66499;121,10016
1,2953;121,51756;0,66931;121,51756
1,3000;121,93158;0,67358;121,93158
1,3075;122,33676;0,68200;122,33676
1,3231;122,73984;0,69850;122,73984
1,3310;123,14385;0,70871;123,14385
1,3372;123,55089;0,71485;123,55089
1,3436;123,95327;0,72104;123,95327
1,3515;124,35798;0,72939;124,35798
1,3606;124,76583;0,74008;124,76583
1,3689;125,17473;0,75114;125,17473
1,3751;125,57653;0,75799;125,57653
1,3826;125,97985;0,76740;125,97985
1,5769;126,23324;1,37182;126,23324
1,6633;126,26269;1,98415;126,26269
1,7290;126,27968;2,58838;126,27968
1,7872;126,29563;3,20099;126,29563
1,8416;126,30645;3,81600;126,30645
1,8942;126,31530;4,42649;126,31530
1,9468;126,32776;5,03480;126,32776
2,0012;126,33462;5,64715;126,33462
2,0575;126,34324;6,25009;126,34324
2,1176;126,34952;6,85106;126,34952
2,1709;126,35918;7,33831;126,35918
2,1833;126,35639;7,45446;126,35639
2,1871;126,35697;7,48724;126,35697
