Part protocol
Network name;Part_OP10_MP-001_2020-08-26_16-25-31_0042_OK.csv
Protocol version;2.01.00

Index;Result information;Process values - curve related;Process values - EO related;Evaluation objects settings;Switch signal settings;Device information;Channel-X settings;Channel-Y settings;Cycle control settings;Evaluation settings;Trigger Y settings;Block settings;Measuring curve;Measuring points;Sequence;
Line;10;30;40;70;100;120;150;190;220;240;250;260;270;280;600;



Result information
Date;2020/08/26
Time;16:25:31
Cycle number;42
Total result;OK
Triggered switch signals
Part serial number;0042
Measuring program name;D57-Left
Measuring program number;1
Zero X offset;0,00;mm
Tara Y offset;0,0;kN









Process values - curve related
Block X;126,32;mm;XMIN-X;-0,19;mm
Block Y;7,4;kN;XMIN-Y;0,0;kN
Ref X;-;mm;XMAX-X;126,32;mm
Peak-peak X;126,50;mm;XMAX-Y;7,4;kN
Peak-peak Y;7,5;kN;YMIN-X;0,59;mm
;;;YMIN-Y;0,0;kN
;;;YMAX-X;126,32;mm
;;;YMAX-Y;7,5;kN

Process values - EO related;Result;Entry;Exit;XMIN-X;XMIN-Y;XMAX-X;XMAX-Y;YMIN-Y;YMIN-X;YMAX-Y;YMAX-X
;;;;mm;kN;mm;kN;kN;mm;kN;mm
EO-01;OK;0,7;0,7;;;;;0,7;124,50;0,7;125,58;;;;;;
EO-02;OK;126,28;126,29;126,28;4,5;126,29;5,0;;;;;;;;;;
EO-03;None;
EO-04;None;
























Evaluation objects settings;Reaction;X reference;Y-Reference;XMin;XMax;YMin;YMax;Entry;Exit;Curve part;Catch zone X;Catch zone Y
EO-01;UNI-BOX;ABSOLUTE;-;124,50;125,70;0,5;3,0;LEFT;RIGHT;ANY;+50%;+50%
EO-02;UNI-BOX;ABSOLUTE;-;125,80;127,20;4,5;5,5;BELOW;ABOVE;ANY;+50%;+50%
EO-03;OFF
EO-04;OFF

























Switch signal settings;Channel;Threshold at;;Trigger from;Reference;Latch until
Type S1;OFF
Type S2;OFF

















Device information
Device type;maXYmos BL
Device type number;5867B1011
Device serial number;5182443
Firmware version;2.3.2 (r22473-BL_v2.3.x)
-
-
-
-
-
IP Address;10.0.0.18
Network name;OP10
Profibus address;10
-
-
-
Station name;OP10
Company name;
Comment;











Channel-X settings
Use the settings from global setup;True
Sensor-X type;Â±10V
Unit;mm
Used range from;0,00;mm
Used range to;200,00;mm
Decimal places;XXXX.XX
Scaling by;Teach-In
Point 1;0,00;mm;-0,350;%
Point 2;200,00;mm;10,000;%
Invert signal;FALSE
Filter;20 Hz
Test point;0,00;mm
Tolerance;2,00;mm
Enable sensor test by dig-input;FALSE
Zoom from;110,00;mm
Zoom to;133,11;mm























Channel-Y settings
Use the settings from global setup;True
Sensor-Y type;Strain Gage
Unit;kN
Used range from;0,0;kN
Used range to;20,0;kN
Decimal places;XXXXX.X
Scaling by;Teach-In
Point 1;0,0;kN;-0,01562;%
Point 2;20,0;kN;2,00000;%
Invert signal;FALSE
Filter;1 Hz
Piezo reset;-
Test point;0,0;kN
Tolerance;0,1;kN
Enable sensor test by dig-input;FALSE
Zoom from;0,0;kN
Zoom to;6,0;kN












Cycle control settings
Use the settings from global setup;True
Measuring function;Y (X)
Delta-X;Automatic
START condition;Dig-Input
STOP condition;Dig-Input
Cycle time out;20,00;s
Turning point RIGHT;YMAX
Turning point LEFT;NONE
Cut curve at;NONE










Evaluation settings
Capture only first NOK-EO for statistics;False
Hysteresis-X;0,0;%
Hysteresis-Y;100,0;%






Trigger Y settings
Threshold;1,9;kN
Value X at TRIGGER Y;0,00;mm
Approach from;BELOW






Block settings
Value X at block;XMAX
Block at;0,00;mm







Measuring curve
Number of measuring points;317
Ref. Graph on;ABSOLUTE
Curve segments;0;317;316;317;


Time;X(ABSOLUTE);Y;X (ABSOLUTE)


s;mm;kN;mm
0,0000;-0,18679;-0,03402;-0,18679
0,0958;0,22630;-0,03405;0,22630
0,0994;0,58701;-0,03406;0,58701
0,0998;0,63392;-0,03406;0,63392
0,1026;1,04224;-0,03406;1,04224
0,1050;1,47838;-0,03405;1,47838
0,1071;1,90753;-0,03405;1,90753
0,1090;2,34541;-0,03405;2,34541
0,1107;2,77829;-0,03405;2,77829
0,1122;3,19383;-0,03405;3,19383
0,1137;3,63788;-0,03405;3,63788
0,1150;4,04969;-0,03405;4,04969
0,1163;4,48315;-0,03404;4,48315
0,1176;4,93768;-0,03404;4,93768
0,1187;5,34215;-0,03404;5,34215
0,1199;5,75722;-0,03404;5,75722
0,1210;6,17846;-0,03403;6,17846
0,1221;6,60110;-0,03403;6,60110
0,1233;7,02012;-0,03403;7,02012
0,1244;7,43135;-0,03402;7,43135
0,1255;7,83187;-0,03402;7,83187
0,1268;8,28325;-0,03402;8,28325
0,1281;8,71625;-0,03401;8,71625
0,1294;9,13074;-0,03400;9,13074
0,1309;9,58177;-0,03400;9,58177
0,1325;10,00871;-0,03399;10,00871
0,1340;10,41307;-0,03398;10,41307
0,1356;10,84491;-0,03397;10,84491
0,1373;11,25893;-0,03395;11,25893
0,1390;11,66236;-0,03394;11,66236
0,1409;12,10431;-0,03392;12,10431
0,1428;12,54313;-0,03390;12,54313
0,1447;12,98194;-0,03387;12,98194
0,1465;13,42413;-0,03385;13,42413
0,1482;13,82756;-0,03383;13,82756
0,1499;14,23704;-0,03383;14,23704
0,1516;14,65188;-0,03381;14,65188
0,1533;15,07114;-0,03377;15,07114
0,1550;15,49436;-0,03374;15,49436
0,1567;15,92165;-0,03372;15,92165
0,1584;16,35336;-0,03368;16,35336
0,1600;16,78868;-0,03364;16,78868
0,1617;17,22668;-0,03360;17,22668
0,1634;17,66654;-0,03356;17,66654
0,1651;18,10839;-0,03352;18,10839
0,1668;18,55267;-0,03352;18,55267
0,1685;18,99952;-0,03348;18,99952
0,1702;19,44834;-0,03343;19,44834
0,1719;19,89833;-0,03337;19,89833
0,1734;20,29920;-0,03333;20,29920
0,1749;20,70123;-0,03327;20,70123
0,1764;21,10501;-0,03321;21,10501
0,1779;21,51065;-0,03321;21,51065
0,1794;21,91780;-0,03315;21,91780
0,1809;22,32577;-0,03309;22,32577
0,1824;22,73386;-0,03302;22,73386
0,1839;23,14218;-0,03296;23,14218
0,1854;23,55084;-0,03296;23,55084
0,1869;23,96044;-0,03288;23,96044
0,1884;24,37086;-0,03281;24,37086
0,1899;24,78150;-0,03273;24,78150
0,1914;25,19180;-0,03266;25,19180
0,1929;25,60152;-0,03266;25,60152
0,1944;26,01053;-0,03258;26,01053
0,1959;26,41932;-0,03249;26,41932
0,1974;26,82798;-0,03241;26,82798
0,1989;27,23642;-0,03233;27,23642
0,2004;27,64439;-0,03233;27,64439
0,2019;28,05119;-0,03223;28,05119
0,2034;28,45672;-0,03214;28,45672
0,2049;28,86085;-0,03205;28,86085
0,2064;29,26369;-0,03195;29,26369
0,2079;29,66549;-0,03195;29,66549
0,2094;30,06590;-0,03186;30,06590
0,2111;30,51437;-0,03175;30,51437
0,2128;30,96029;-0,03164;30,96029
0,2145;31,40352;-0,03154;31,40352
0,2162;31,84408;-0,03143;31,84408
0,2179;32,28208;-0,03132;32,28208
0,2196;32,71787;-0,03121;32,71787
0,2213;33,15098;-0,03121;33,15098
0,2229;33,58165;-0,03109;33,58165
0,2246;34,00975;-0,03098;34,00975
0,2263;34,43553;-0,03086;34,43553
0,2280;34,85886;-0,03074;34,85886
0,2297;35,28010;-0,03061;35,28010
0,2314;35,69925;-0,03049;35,69925
0,2331;36,11618;-0,03036;36,11618
0,2348;36,53090;-0,03023;36,53090
0,2365;36,94341;-0,03010;36,94341
0,2381;37,35370;-0,03010;37,35370
0,2398;37,76156;-0,02997;37,76156
0,2415;38,16708;-0,02983;38,16708
0,2432;38,57016;-0,02970;38,57016
0,2449;38,97091;-0,02956;38,97091
0,2468;39,41380;-0,02942;39,41380
0,2487;39,85436;-0,02928;39,85436
0,2505;40,29283;-0,02913;40,29283
0,2524;40,72966;-0,02900;40,72966
0,2543;41,16498;-0,02885;41,16498
0,2562;41,59879;-0,02871;41,59879
0,2580;42,03097;-0,02856;42,03097
0,2599;42,46152;-0,02841;42,46152
0,2618;42,89021;-0,02826;42,89021
0,2637;43,31704;-0,02811;43,31704
0,2656;43,74200;-0,02796;43,74200
0,2674;44,16510;-0,02780;44,16510
0,2693;44,58634;-0,02765;44,58634
0,2712;45,00583;-0,02750;45,00583
0,2731;45,42346;-0,02734;45,42346
0,2749;45,83958;-0,02718;45,83958
0,2768;46,25441;-0,02702;46,25441
0,2787;46,66774;-0,02687;46,66774
0,2806;47,07943;-0,02671;47,07943
0,2825;47,48938;-0,02654;47,48938
0,2843;47,89758;-0,02638;47,89758
0,2862;48,30404;-0,02623;48,30404
0,2881;48,70898;-0,02606;48,70898
0,2900;49,11264;-0,02589;49,11264
0,2918;49,51514;-0,02574;49,51514
0,2937;49,91671;-0,02557;49,91671
0,2956;50,31734;-0,02540;50,31734
0,2977;50,75686;-0,02524;50,75686
0,2997;51,19521;-0,02508;51,19521
0,3018;51,63239;-0,02491;51,63239
0,3039;52,06829;-0,02475;52,06829
0,3059;52,50303;-0,02440;52,50303
0,3080;52,93673;-0,02424;52,93673
0,3101;53,36914;-0,02407;53,36914
0,3121;53,80039;-0,02390;53,80039
0,3142;54,23036;-0,02374;54,23036
0,3162;54,65916;-0,02357;54,65916
0,3183;55,08657;-0,02339;55,08657
0,3204;55,51269;-0,02323;55,51269
0,3224;55,93731;-0,02306;55,93731
0,3245;56,36029;-0,02289;56,36029
0,3266;56,78188;-0,02255;56,78188
0,3286;57,20230;-0,02238;57,20230
0,3307;57,62180;-0,02221;57,62180
0,3328;58,04047;-0,02204;58,04047
0,3348;58,45845;-0,02187;58,45845
0,3369;58,87562;-0,02170;58,87562
0,3390;59,29162;-0,02152;59,29162
0,3410;59,70657;-0,02136;59,70657
0,3431;60,12024;-0,02119;60,12024
0,3452;60,53240;-0,02102;60,53240
0,3472;60,94328;-0,02067;60,94328
0,3493;61,35300;-0,02051;61,35300
0,3514;61,76166;-0,02034;61,76166
0,3534;62,16940;-0,02016;62,16940
0,3555;62,57609;-0,02000;62,57609
0,3576;62,98173;-0,01982;62,98173
0,3596;63,38621;-0,01965;63,38621
0,3617;63,78964;-0,01949;63,78964
0,3637;64,19179;-0,01931;64,19179
0,3658;64,59289;-0,01915;64,59289
0,3679;64,99294;-0,01881;64,99294
0,3701;65,42815;-0,01864;65,42815
0,3724;65,86219;-0,01847;65,86219
0,3746;66,29519;-0,01830;66,29519
0,3769;66,72713;-0,01814;66,72713
0,3791;67,15803;-0,01779;67,15803
0,3814;67,58777;-0,01763;67,58777
0,3836;68,01634;-0,01746;68,01634
0,3859;68,44374;-0,01729;68,44374
0,3882;68,86999;-0,01713;68,86999
0,3904;69,29507;-0,01679;69,29507
0,3927;69,71898;-0,01663;69,71898
0,3949;70,14197;-0,01646;70,14197
0,3972;70,56425;-0,01629;70,56425
0,3994;70,98619;-0,01613;70,98619
0,4017;71,40754;-0,01579;71,40754
0,4039;71,82832;-0,01563;71,82832
0,4062;72,24793;-0,01546;72,24793
0,4084;72,66625;-0,01529;72,66625
0,4107;73,08319;-0,01514;73,08319
0,4129;73,49907;-0,01480;73,49907
0,4152;73,91402;-0,01465;73,91402
0,4174;74,32816;-0,01448;74,32816
0,4197;74,74160;-0,01431;74,74160
0,4219;75,15411;-0,01416;75,15411
0,4242;75,56545;-0,01383;75,56545
0,4265;75,97529;-0,01367;75,97529
0,4287;76,38349;-0,01351;76,38349
0,4310;76,79018;-0,01334;76,79018
0,4332;77,19547;-0,01318;77,19547
0,4355;77,59936;-0,01286;77,59936
0,4377;78,00209;-0,01270;78,00209
0,4400;78,40378;-0,01254;78,40378
0,4422;78,80488;-0,01238;78,80488
0,4445;79,20552;-0,01222;79,20552
0,4467;79,60580;-0,01190;79,60580
0,4492;80,03868;-0,01174;80,03868
0,4516;80,47040;-0,01158;80,47040
0,4541;80,90025;-0,01143;80,90025
0,4565;81,32824;-0,01111;81,32824
0,4589;81,75413;-0,01095;81,75413
0,4614;82,17816;-0,01080;82,17816
0,4638;82,60068;-0,01048;82,60068
0,4663;83,02192;-0,01032;83,02192
0,4687;83,44188;-0,01017;83,44188
0,4711;83,86032;-0,00985;83,86032
0,4736;84,27702;-0,00969;84,27702
0,4760;84,69186;-0,00954;84,69186
0,4785;85,10495;-0,00938;85,10495
0,4809;85,51676;-0,00907;85,51676
0,4833;85,92764;-0,00892;85,92764
0,4858;86,33770;-0,00877;86,33770
0,4882;86,74718;-0,00845;86,74718
0,4907;87,15608;-0,00830;87,15608
0,4931;87,56417;-0,00815;87,56417
0,4955;87,97109;-0,00784;87,97109
0,4980;88,37697;-0,00769;88,37697
0,5004;88,78156;-0,00754;88,78156
0,5029;89,18464;-0,00738;89,18464
0,5053;89,58621;-0,00707;89,58621
0,5079;90,01652;-0,00693;90,01652
0,5106;90,44486;-0,00662;90,44486
0,5132;90,87111;-0,00646;90,87111
0,5158;91,29560;-0,00632;91,29560
0,5184;91,71847;-0,00601;91,71847
0,5211;92,13994;-0,00586;92,13994
0,5237;92,56037;-0,00556;92,56037
0,5263;92,97997;-0,00541;92,97997
0,5290;93,39865;-0,00526;93,39865
0,5316;93,81663;-0,00495;93,81663
0,5342;94,23368;-0,00481;94,23368
0,5368;94,64980;-0,00451;94,64980
0,5395;95,06487;-0,00436;95,06487
0,5421;95,47889;-0,00421;95,47889
0,5447;95,89175;-0,00391;95,89175
0,5474;96,30321;-0,00376;96,30321
0,5500;96,71339;-0,00346;96,71339
0,5526;97,12240;-0,00332;97,12240
0,5552;97,53049;-0,00317;97,53049
0,5579;97,93764;-0,00287;97,93764
0,5605;98,34387;-0,00272;98,34387
0,5631;98,74927;-0,00243;98,74927
0,5658;99,15398;-0,00228;99,15398
0,5684;99,55811;-0,00213;99,55811
0,5710;99,96166;-0,00184;99,96166
0,5736;100,36439;-0,00169;100,36439
0,5763;100,76596;-0,00139;100,76596
0,5789;101,16636;-0,00124;101,16636
0,5817;101,59423;-0,00109;101,59423
0,5845;102,02106;-0,00080;102,02106
0,5873;102,44719;-0,00066;102,44719
0,5902;102,87285;-0,00036;102,87285
0,5930;103,29723;-0,00022;103,29723
0,5958;103,71905;0,00008;103,71905
0,5986;104,13680;0,00022;104,13680
0,6014;104,54919;0,00052;104,54919
0,6042;104,95704;0,00066;104,95704
0,6071;105,36198;0,00095;105,36198
0,6099;105,76553;0,00110;105,76553
0,6127;106,16838;0,00140;106,16838
0,6155;106,57041;0,00154;106,57041
0,6183;106,97174;0,00183;106,97174
0,6211;107,37285;0,00198;107,37285
0,6240;107,77372;0,00227;107,77372
0,6268;108,17377;0,00241;108,17377
0,6298;108,59931;0,00271;108,59931
0,6328;109,02335;0,00301;109,02335
0,6358;109,44633;0,00315;109,44633
0,6388;109,86920;0,00345;109,86920
0,6418;110,29230;0,00360;110,29230
0,6448;110,71598;0,00389;110,71598
0,6478;111,14001;0,00419;111,14001
0,6508;111,56405;0,00434;111,56405
0,6538;111,98749;0,00464;111,98749
0,6568;112,41025;0,00479;112,41025
0,6598;112,83242;0,00509;112,83242
0,6628;113,25319;0,00539;113,25319
0,6658;113,66954;0,00554;113,66954
0,6688;114,07739;0,00586;114,07739
0,6720;114,49991;0,00616;114,49991
0,6752;114,91021;0,00632;114,91021
0,6786;115,33121;0,00663;115,33121
0,6820;115,73872;0,00694;115,73872
0,6855;116,15646;0,00725;116,15646
0,6891;116,56606;0,00758;116,56606
0,6927;116,97298;0,00790;116,97298
0,6962;117,38316;0,00806;117,38316
0,6998;117,79556;0,00839;117,79556
0,7036;118,19642;0,00873;118,19642
0,7086;118,59811;0,00924;118,59811
0,9319;118,99816;0,12665;118,99816
1,2713;119,40054;0,63866;119,40054
1,2752;119,82423;0,64325;119,82423
1,2780;120,23255;0,64553;120,23255
1,2805;120,63609;0,65004;120,63609
1,2829;121,06105;0,65228;121,06105
1,2854;121,48183;0,65450;121,48183
1,2880;121,90330;0,65889;121,90330
1,2910;122,32023;0,66107;122,32023
1,2948;122,73507;0,66537;122,73507
1,2996;123,14106;0,67171;123,14106
1,3060;123,54356;0,67792;123,54356
1,3133;123,94501;0,68598;123,94501
1,3192;124,35332;0,69185;124,35332
1,3239;124,75594;0,69758;124,75594
1,3284;125,17089;0,70131;125,17089
1,3332;125,57886;0,70679;125,57886
1,3411;125,98124;0,71388;125,98124
1,5750;126,19844;1,32235;126,19844
1,6539;126,22637;1,92797;126,22637
1,7140;126,24185;2,53101;126,24185
1,7665;126,25594;3,13271;126,25594
1,8172;126,26641;3,75208;126,26641
1,8660;126,27584;4,36243;126,27584
1,9149;126,28550;4,96811;126,28550
1,9655;126,29388;5,57746;126,29388
2,0181;126,30226;6,17760;126,30226
2,0744;126,30867;6,77800;126,30867
2,1364;126,31670;7,38480;126,31670
2,1411;126,31728;7,41979;126,31728
2,1458;126,31716;7,47188;126,31716
