Part protocol
Network name;Part_OP10_MP-001_2020-08-26_15-15-25_0022_OK.csv
Protocol version;2.01.00

Index;Result information;Process values - curve related;Process values - EO related;Evaluation objects settings;Switch signal settings;Device information;Channel-X settings;Channel-Y settings;Cycle control settings;Evaluation settings;Trigger Y settings;Block settings;Measuring curve;Measuring points;Sequence;
Line;10;30;40;70;100;120;150;190;220;240;250;260;270;280;600;



Result information
Date;2020/08/26
Time;15:15:25
Cycle number;22
Total result;OK
Triggered switch signals
Part serial number;0022
Measuring program name;D57-Left
Measuring program number;1
Zero X offset;0,00;mm
Tara Y offset;0,0;kN









Process values - curve related
Block X;126,39;mm;XMIN-X;-0,18;mm
Block Y;7,4;kN;XMIN-Y;0,0;kN
Ref X;-;mm;XMAX-X;126,39;mm
Peak-peak X;126,57;mm;XMAX-Y;7,4;kN
Peak-peak Y;7,5;kN;YMIN-X;-0,18;mm
;;;YMIN-Y;0,0;kN
;;;YMAX-X;126,39;mm
;;;YMAX-Y;7,4;kN

Process values - EO related;Result;Entry;Exit;XMIN-X;XMIN-Y;XMAX-X;XMAX-Y;YMIN-Y;YMIN-X;YMAX-Y;YMAX-X
;;;;mm;kN;mm;kN;kN;mm;kN;mm
EO-01;OK;0,7;0,8;;;;;0,7;124,50;0,8;125,49;;;;;;
EO-02;OK;126,35;126,36;126,35;4,5;126,35;5,0;;;;;;;;;;
EO-03;None;
EO-04;None;
























Evaluation objects settings;Reaction;X reference;Y-Reference;XMin;XMax;YMin;YMax;Entry;Exit;Curve part;Catch zone X;Catch zone Y
EO-01;UNI-BOX;ABSOLUTE;-;124,50;125,70;0,5;3,0;LEFT;RIGHT;ANY;+50%;+50%
EO-02;UNI-BOX;ABSOLUTE;-;125,80;127,20;4,5;5,5;BELOW;ABOVE;ANY;+50%;+50%
EO-03;OFF
EO-04;OFF

























Switch signal settings;Channel;Threshold at;;Trigger from;Reference;Latch until
Type S1;OFF
Type S2;OFF

















Device information
Device type;maXYmos BL
Device type number;5867B1011
Device serial number;5182443
Firmware version;2.3.2 (r22473-BL_v2.3.x)
-
-
-
-
-
IP Address;10.0.0.18
Network name;OP10
Profibus address;10
-
-
-
Station name;OP10
Company name;
Comment;











Channel-X settings
Use the settings from global setup;True
Sensor-X type;Â±10V
Unit;mm
Used range from;0,00;mm
Used range to;200,00;mm
Decimal places;XXXX.XX
Scaling by;Teach-In
Point 1;0,00;mm;-0,350;%
Point 2;200,00;mm;10,000;%
Invert signal;FALSE
Filter;20 Hz
Test point;0,00;mm
Tolerance;2,00;mm
Enable sensor test by dig-input;FALSE
Zoom from;110,00;mm
Zoom to;133,11;mm























Channel-Y settings
Use the settings from global setup;True
Sensor-Y type;Strain Gage
Unit;kN
Used range from;0,0;kN
Used range to;20,0;kN
Decimal places;XXXXX.X
Scaling by;Teach-In
Point 1;0,0;kN;-0,01562;%
Point 2;20,0;kN;2,00000;%
Invert signal;FALSE
Filter;1 Hz
Piezo reset;-
Test point;0,0;kN
Tolerance;0,1;kN
Enable sensor test by dig-input;FALSE
Zoom from;0,0;kN
Zoom to;6,0;kN












Cycle control settings
Use the settings from global setup;True
Measuring function;Y (X)
Delta-X;Automatic
START condition;Dig-Input
STOP condition;Dig-Input
Cycle time out;20,00;s
Turning point RIGHT;YMAX
Turning point LEFT;NONE
Cut curve at;NONE










Evaluation settings
Capture only first NOK-EO for statistics;False
Hysteresis-X;0,0;%
Hysteresis-Y;100,0;%






Trigger Y settings
Threshold;1,9;kN
Value X at TRIGGER Y;0,00;mm
Approach from;BELOW






Block settings
Value X at block;XMAX
Block at;0,00;mm







Measuring curve
Number of measuring points;314
Ref. Graph on;ABSOLUTE
Curve segments;0;313;312;314;


Time;X(ABSOLUTE);Y;X (ABSOLUTE)


s;mm;kN;mm
0,0000;-0,18085;-0,03500;-0,18085
0,0986;0,22525;-0,03500;0,22525
0,1026;0,63671;-0,03500;0,63671
0,1054;1,04852;-0,03500;1,04852
0,1076;1,45126;-0,03500;1,45126
0,1097;1,87796;-0,03500;1,87796
0,1116;2,31364;-0,03499;2,31364
0,1133;2,74430;-0,03499;2,74430
0,1148;3,15751;-0,03499;3,15751
0,1163;3,59912;-0,03499;3,59912
0,1176;4,00837;-0,03498;4,00837
0,1189;4,43892;-0,03498;4,43892
0,1202;4,89019;-0,03498;4,89019
0,1213;5,29175;-0,03498;5,29175
0,1225;5,70415;-0,03498;5,70415
0,1236;6,12340;-0,03498;6,12340
0,1247;6,54488;-0,03497;6,54488
0,1258;6,96355;-0,03497;6,96355
0,1270;7,37490;-0,03496;7,37490
0,1281;7,77565;-0,03495;7,77565
0,1294;8,22762;-0,03495;8,22762
0,1307;8,66154;-0,03495;8,66154
0,1320;9,07754;-0,03493;9,07754
0,1335;9,53149;-0,03493;9,53149
0,1350;9,96332;-0,03492;9,96332
0,1365;10,37466;-0,03491;10,37466
0,1382;10,81627;-0,03489;10,81627
0,1399;11,24065;-0,03488;11,24065
0,1416;11,65409;-0,03486;11,65409
0,1433;12,06148;-0,03485;12,06148
0,1450;12,46619;-0,03483;12,46619
0,1467;12,86997;-0,03483;12,86997
0,1484;13,27433;-0,03480;13,27433
0,1501;13,68125;-0,03478;13,68125
0,1517;14,09225;-0,03475;14,09225
0,1534;14,50790;-0,03473;14,50790
0,1551;14,92762;-0,03470;14,92762
0,1568;15,35072;-0,03467;15,35072
0,1585;15,77673;-0,03463;15,77673
0,1602;16,20565;-0,03460;16,20565
0,1619;16,63760;-0,03456;16,63760
0,1636;17,07176;-0,03456;17,07176
0,1653;17,50755;-0,03452;17,50755
0,1669;17,94462;-0,03448;17,94462
0,1686;18,38285;-0,03444;18,38285
0,1703;18,82283;-0,03439;18,82283
0,1720;19,26443;-0,03435;19,26443
0,1737;19,70709;-0,03430;19,70709
0,1754;20,15044;-0,03424;20,15044
0,1771;20,59449;-0,03419;20,59449
0,1788;21,03983;-0,03413;21,03983
0,1805;21,48702;-0,03413;21,48702
0,1822;21,93573;-0,03407;21,93573
0,1838;22,38525;-0,03401;22,38525
0,1855;22,83512;-0,03395;22,83512
0,1872;23,28500;-0,03388;23,28500
0,1887;23,68505;-0,03381;23,68505
0,1902;24,08569;-0,03374;24,08569
0,1917;24,48655;-0,03374;24,48655
0,1932;24,88754;-0,03367;24,88754
0,1947;25,28794;-0,03359;25,28794
0,1964;25,73770;-0,03351;25,73770
0,1981;26,18687;-0,03343;26,18687
0,1998;26,63605;-0,03335;26,63605
0,2015;27,08534;-0,03326;27,08534
0,2032;27,53416;-0,03317;27,53416
0,2049;27,98194;-0,03317;27,98194
0,2066;28,42808;-0,03309;28,42808
0,2083;28,87260;-0,03299;28,87260
0,2099;29,31572;-0,03289;29,31572
0,2116;29,75733;-0,03280;29,75733
0,2133;30,19731;-0,03270;30,19731
0,2150;30,63496;-0,03260;30,63496
0,2167;31,07028;-0,03249;31,07028
0,2184;31,50304;-0,03239;31,50304
0,2201;31,93371;-0,03228;31,93371
0,2218;32,36216;-0,03228;32,36216
0,2235;32,78841;-0,03217;32,78841
0,2251;33,21221;-0,03206;33,21221
0,2268;33,63356;-0,03195;33,63356
0,2285;34,05270;-0,03183;34,05270
0,2302;34,46952;-0,03171;34,46952
0,2319;34,88424;-0,03159;34,88424
0,2336;35,29651;-0,03147;35,29651
0,2353;35,70646;-0,03135;35,70646
0,2370;36,11408;-0,03122;36,11408
0,2387;36,51961;-0,03122;36,51961
0,2404;36,92327;-0,03110;36,92327
0,2420;37,32495;-0,03097;37,32495
0,2439;37,76924;-0,03084;37,76924
0,2458;38,21120;-0,03070;38,21120
0,2477;38,65117;-0,03057;38,65117
0,2496;39,08941;-0,03043;39,08941
0,2514;39,52578;-0,03030;39,52578
0,2533;39,96052;-0,03016;39,96052
0,2552;40,39374;-0,03002;40,39374
0,2571;40,82546;-0,02987;40,82546
0,2589;41,25542;-0,02974;41,25542
0,2608;41,68365;-0,02960;41,68365
0,2627;42,10966;-0,02945;42,10966
0,2646;42,53369;-0,02930;42,53369
0,2665;42,95574;-0,02915;42,95574
0,2683;43,37593;-0,02900;43,37593
0,2702;43,79438;-0,02886;43,79438
0,2721;44,21143;-0,02871;44,21143
0,2740;44,62731;-0,02856;44,62731
0,2758;45,04226;-0,02840;45,04226
0,2777;45,45628;-0,02825;45,45628
0,2796;45,86961;-0,02810;45,86961
0,2815;46,28212;-0,02794;46,28212
0,2833;46,69369;-0,02778;46,69369
0,2852;47,10399;-0,02763;47,10399
0,2871;47,51266;-0,02747;47,51266
0,2890;47,91946;-0,02731;47,91946
0,2909;48,32452;-0,02715;48,32452
0,2927;48,72795;-0,02700;48,72795
0,2946;49,12987;-0,02683;49,12987
0,2965;49,53051;-0,02667;49,53051
0,2986;49,97013;-0,02650;49,97013
0,3006;50,40860;-0,02635;50,40860
0,3027;50,84625;-0,02602;50,84625
0,3047;51,28285;-0,02586;51,28285
0,3068;51,71817;-0,02569;51,71817
0,3089;52,15210;-0,02552;52,15210
0,3109;52,58451;-0,02536;52,58451
0,3130;53,01541;-0,02520;53,01541
0,3151;53,44468;-0,02503;53,44468
0,3171;53,87244;-0,02487;53,87244
0,3192;54,29856;-0,02470;54,29856
0,3213;54,72329;-0,02453;54,72329
0,3233;55,14628;-0,02419;55,14628
0,3254;55,56787;-0,02402;55,56787
0,3275;55,98794;-0,02386;55,98794
0,3295;56,40650;-0,02369;56,40650
0,3316;56,82378;-0,02352;56,82378
0,3337;57,23967;-0,02336;57,23967
0,3357;57,65439;-0,02318;57,65439
0,3378;58,06818;-0,02302;58,06818
0,3399;58,48092;-0,02285;58,48092
0,3419;58,89273;-0,02268;58,89273
0,3440;59,30349;-0,02234;59,30349
0,3461;59,71332;-0,02217;59,71332
0,3481;60,12211;-0,02201;60,12211
0,3502;60,52961;-0,02183;60,52961
0,3522;60,93583;-0,02166;60,93583
0,3543;61,34066;-0,02150;61,34066
0,3564;61,74420;-0,02133;61,74420
0,3584;62,14647;-0,02116;62,14647
0,3605;62,54746;-0,02099;62,54746
0,3628;62,98324;-0,02065;62,98324
0,3650;63,41740;-0,02049;63,41740
0,3673;63,85005;-0,02031;63,85005
0,3695;64,28130;-0,02015;64,28130
0,3718;64,71103;-0,01998;64,71103
0,3740;65,13937;-0,01965;65,13937
0,3763;65,56643;-0,01948;65,56643
0,3785;65,99244;-0,01931;65,99244
0,3808;66,41740;-0,01915;66,41740
0,3830;66,84155;-0,01898;66,84155
0,3853;67,26500;-0,01865;67,26500
0,3875;67,68787;-0,01848;67,68787
0,3898;68,10980;-0,01831;68,10980
0,3920;68,53104;-0,01815;68,53104
0,3943;68,95112;-0,01798;68,95112
0,3966;69,37026;-0,01765;69,37026
0,3988;69,78836;-0,01748;69,78836
0,4011;70,20540;-0,01731;70,20540
0,4033;70,62129;-0,01715;70,62129
0,4056;71,03624;-0,01699;71,03624
0,4078;71,45038;-0,01666;71,45038
0,4101;71,86370;-0,01650;71,86370
0,4123;72,27621;-0,01633;72,27621
0,4146;72,68779;-0,01617;72,68779
0,4168;73,09867;-0,01601;73,09867
0,4191;73,50885;-0,01568;73,50885
0,4213;73,91833;-0,01552;73,91833
0,4236;74,32711;-0,01536;74,32711
0,4258;74,73520;-0,01519;74,73520
0,4281;75,14235;-0,01504;75,14235
0,4303;75,54893;-0,01471;75,54893
0,4326;75,95468;-0,01455;75,95468
0,4349;76,35963;-0,01439;76,35963
0,4371;76,76364;-0,01423;76,76364
0,4394;77,16637;-0,01407;77,16637
0,4416;77,56782;-0,01375;77,56782
0,4439;77,96822;-0,01359;77,96822
0,4463;78,40087;-0,01343;78,40087
0,4487;78,83270;-0,01328;78,83270
0,4512;79,26371;-0,01296;79,26371
0,4536;79,69392;-0,01280;79,69392
0,4561;80,12272;-0,01265;80,12272
0,4585;80,54989;-0,01233;80,54989
0,4609;80,97486;-0,01218;80,97486
0,4634;81,39749;-0,01202;81,39749
0,4658;81,81815;-0,01186;81,81815
0,4683;82,23683;-0,01156;82,23683
0,4707;82,65387;-0,01140;82,65387
0,4732;83,06953;-0,01124;83,06953
0,4756;83,48366;-0,01093;83,48366
0,4780;83,89629;-0,01078;83,89629
0,4805;84,30705;-0,01062;84,30705
0,4829;84,71607;-0,01031;84,71607
0,4854;85,12357;-0,01017;85,12357
0,4878;85,52979;-0,01001;85,52979
0,4902;85,93509;-0,00986;85,93509
0,4927;86,33991;-0,00956;86,33991
0,4951;86,74392;-0,00940;86,74392
0,4976;87,14701;-0,00925;87,14701
0,5000;87,54869;-0,00894;87,54869
0,5026;87,97936;-0,00880;87,97936
0,5053;88,40769;-0,00864;88,40769
0,5079;88,83429;-0,00834;88,83429
0,5105;89,25925;-0,00819;89,25925
0,5131;89,68305;-0,00789;89,68305
0,5158;90,10592;-0,00774;90,10592
0,5184;90,52785;-0,00759;90,52785
0,5210;90,94874;-0,00729;90,94874
0,5237;91,36823;-0,00714;91,36823
0,5263;91,78621;-0,00684;91,78621
0,5289;92,20280;-0,00670;92,20280
0,5315;92,61798;-0,00655;92,61798
0,5342;93,03224;-0,00625;93,03224
0,5368;93,44603;-0,00610;93,44603
0,5394;93,85935;-0,00581;93,85935
0,5421;94,27209;-0,00566;94,27209
0,5447;94,68355;-0,00551;94,68355
0,5473;95,09350;-0,00521;95,09350
0,5499;95,50182;-0,00508;95,50182
0,5526;95,90874;-0,00478;95,90874
0,5552;96,31450;-0,00463;96,31450
0,5578;96,71909;-0,00448;96,71909
0,5605;97,12310;-0,00420;97,12310
0,5631;97,52642;-0,00405;97,52642
0,5657;97,92961;-0,00375;97,92961
0,5683;98,33269;-0,00360;98,33269
0,5710;98,73554;-0,00346;98,73554
0,5736;99,13757;-0,00317;99,13757
0,5762;99,53856;-0,00302;99,53856
0,5790;99,96678;-0,00273;99,96678
0,5819;100,39349;-0,00259;100,39349
0,5847;100,81857;-0,00230;100,81857
0,5875;101,24248;-0,00215;101,24248
0,5903;101,66558;-0,00186;101,66558
0,5931;102,08787;-0,00171;102,08787
0,5959;102,50923;-0,00143;102,50923
0,5988;102,92953;-0,00128;102,92953
0,6016;103,34821;-0,00099;103,34821
0,6044;103,76363;-0,00084;103,76363
0,6072;104,17369;-0,00056;104,17369
0,6100;104,57666;-0,00042;104,57666
0,6130;104,99848;-0,00012;104,99848
0,6160;105,41366;0,00002;105,41366
0,6190;105,82349;0,00030;105,82349
0,6220;106,22820;0,00060;106,22820
0,6252;106,65189;0,00074;106,65189
0,6284;107,06859;0,00103;107,06859
0,6316;107,47784;0,00132;107,47784
0,6348;107,87964;0,00147;107,87964
0,6382;108,29773;0,00177;108,29773
0,6416;108,71001;0,00206;108,71001
0,6449;109,11937;0,00236;109,11937
0,6483;109,52839;0,00265;109,52839
0,6517;109,93939;0,00280;109,93939
0,6551;110,35341;0,00311;110,35341
0,6585;110,77162;0,00341;110,77162
0,6616;111,17191;0,00373;111,17191
0,6648;111,57801;0,00389;111,57801
0,6680;111,99017;0,00420;111,99017
0,6712;112,40850;0,00451;112,40850
0,6744;112,83253;0,00484;112,83253
0,6774;113,23619;0,00501;113,23619
0,6804;113,64347;0,00534;113,64347
0,6834;114,05388;0,00551;114,05388
0,6864;114,46662;0,00585;114,46662
0,6894;114,88029;0,00619;114,88029
0,6924;115,29327;0,00637;115,29327
0,6954;115,70484;0,00672;115,70484
0,6984;116,11561;0,00689;116,11561
0,7014;116,52684;0,00725;116,52684
0,7044;116,93737;0,00763;116,93737
0,7075;117,34708;0,00781;117,34708
0,7106;117,76809;0,00819;117,76809
0,7142;118,16954;0,00858;118,16954
0,7197;118,57704;0,00918;118,57704
1,2564;118,95894;0,61052;118,95894
1,2906;119,37401;0,65278;119,37401
1,2945;119,78116;0,65725;119,78116
1,2979;120,19297;0,66166;120,19297
1,3013;120,61025;0,66386;120,61025
1,3048;121,02614;0,66821;121,02614
1,3088;121,43818;0,67251;121,43818
1,3137;121,84603;0,67891;121,84603
1,3221;122,24725;0,68940;122,24725
1,3353;122,65394;0,70389;122,65394
1,3430;123,06307;0,71214;123,06307
1,3492;123,46615;0,71836;123,46615
1,3555;123,87296;0,72464;123,87296
1,3621;124,28267;0,73311;124,28267
1,3689;124,68505;0,73957;124,68505
1,3751;125,08616;0,74835;125,08616
1,3805;125,49215;0,75509;125,49215
1,3867;125,89406;0,76197;125,89406
1,5906;126,25908;1,36561;126,25908
1,6788;126,29062;1,98032;126,29062
1,7464;126,31041;2,59434;126,31041
1,8046;126,32368;3,20028;126,32368
1,8591;126,33497;3,80824;126,33497
1,9116;126,34487;4,41185;126,34487
1,9642;126,35383;5,01375;126,35383
2,0186;126,36419;5,62023;126,36419
2,0768;126,37094;6,23747;126,37094
2,1388;126,38141;6,85128;126,38141
2,2026;126,38793;7,43338;126,38793
2,2034;126,38805;7,43338;126,38805
