Part protocol
Network name;Part_OP10_MP-001_2020-08-26_16-07-10_0038_OK.csv
Protocol version;2.01.00

Index;Result information;Process values - curve related;Process values - EO related;Evaluation objects settings;Switch signal settings;Device information;Channel-X settings;Channel-Y settings;Cycle control settings;Evaluation settings;Trigger Y settings;Block settings;Measuring curve;Measuring points;Sequence;
Line;10;30;40;70;100;120;150;190;220;240;250;260;270;280;600;



Result information
Date;2020/08/26
Time;16:07:10
Cycle number;38
Total result;OK
Triggered switch signals
Part serial number;0038
Measuring program name;D57-Left
Measuring program number;1
Zero X offset;0,00;mm
Tara Y offset;0,0;kN









Process values - curve related
Block X;126,39;mm;XMIN-X;-0,14;mm
Block Y;7,5;kN;XMIN-Y;0,0;kN
Ref X;-;mm;XMAX-X;126,39;mm
Peak-peak X;126,53;mm;XMAX-Y;7,5;kN
Peak-peak Y;7,5;kN;YMIN-X;0,27;mm
;;;YMIN-Y;0,0;kN
;;;YMAX-X;126,39;mm
;;;YMAX-Y;7,5;kN

Process values - EO related;Result;Entry;Exit;XMIN-X;XMIN-Y;XMAX-X;XMAX-Y;YMIN-Y;YMIN-X;YMAX-Y;YMAX-X
;;;;mm;kN;mm;kN;kN;mm;kN;mm
EO-01;OK;0,7;0,8;;;;;0,7;124,50;0,8;125,47;;;;;;
EO-02;OK;126,35;126,36;126,35;4,5;126,36;5,0;;;;;;;;;;
EO-03;None;
EO-04;None;
























Evaluation objects settings;Reaction;X reference;Y-Reference;XMin;XMax;YMin;YMax;Entry;Exit;Curve part;Catch zone X;Catch zone Y
EO-01;UNI-BOX;ABSOLUTE;-;124,50;125,70;0,5;3,0;LEFT;RIGHT;ANY;+50%;+50%
EO-02;UNI-BOX;ABSOLUTE;-;125,80;127,20;4,5;5,5;BELOW;ABOVE;ANY;+50%;+50%
EO-03;OFF
EO-04;OFF

























Switch signal settings;Channel;Threshold at;;Trigger from;Reference;Latch until
Type S1;OFF
Type S2;OFF

















Device information
Device type;maXYmos BL
Device type number;5867B1011
Device serial number;5182443
Firmware version;2.3.2 (r22473-BL_v2.3.x)
-
-
-
-
-
IP Address;10.0.0.18
Network name;OP10
Profibus address;10
-
-
-
Station name;OP10
Company name;
Comment;











Channel-X settings
Use the settings from global setup;True
Sensor-X type;Â±10V
Unit;mm
Used range from;0,00;mm
Used range to;200,00;mm
Decimal places;XXXX.XX
Scaling by;Teach-In
Point 1;0,00;mm;-0,350;%
Point 2;200,00;mm;10,000;%
Invert signal;FALSE
Filter;20 Hz
Test point;0,00;mm
Tolerance;2,00;mm
Enable sensor test by dig-input;FALSE
Zoom from;110,00;mm
Zoom to;133,11;mm























Channel-Y settings
Use the settings from global setup;True
Sensor-Y type;Strain Gage
Unit;kN
Used range from;0,0;kN
Used range to;20,0;kN
Decimal places;XXXXX.X
Scaling by;Teach-In
Point 1;0,0;kN;-0,01562;%
Point 2;20,0;kN;2,00000;%
Invert signal;FALSE
Filter;1 Hz
Piezo reset;-
Test point;0,0;kN
Tolerance;0,1;kN
Enable sensor test by dig-input;FALSE
Zoom from;0,0;kN
Zoom to;6,0;kN












Cycle control settings
Use the settings from global setup;True
Measuring function;Y (X)
Delta-X;Automatic
START condition;Dig-Input
STOP condition;Dig-Input
Cycle time out;20,00;s
Turning point RIGHT;YMAX
Turning point LEFT;NONE
Cut curve at;NONE










Evaluation settings
Capture only first NOK-EO for statistics;False
Hysteresis-X;0,0;%
Hysteresis-Y;100,0;%






Trigger Y settings
Threshold;1,9;kN
Value X at TRIGGER Y;0,00;mm
Approach from;BELOW






Block settings
Value X at block;XMAX
Block at;0,00;mm







Measuring curve
Number of measuring points;315
Ref. Graph on;ABSOLUTE
Curve segments;0;314;313;315;


Time;X(ABSOLUTE);Y;X (ABSOLUTE)


s;mm;kN;mm
0,0000;-0,14244;-0,03410;-0,14244
0,0995;0,26844;-0,03419;0,26844
0,1034;0,68339;-0,03419;0,68339
0,1063;1,09881;-0,03419;1,09881
0,1085;1,50550;-0,03419;1,50550
0,1106;1,93675;-0,03419;1,93675
0,1125;2,37765;-0,03419;2,37765
0,1141;2,81379;-0,03419;2,81379
0,1156;3,23270;-0,03419;3,23270
0,1172;3,68025;-0,03419;3,68025
0,1185;4,09531;-0,03418;4,09531
0,1198;4,53215;-0,03418;4,53215
0,1211;4,98994;-0,03418;4,98994
0,1222;5,39674;-0,03418;5,39674
0,1233;5,81332;-0,03418;5,81332
0,1245;6,23538;-0,03417;6,23538
0,1256;6,65790;-0,03417;6,65790
0,1267;7,07611;-0,03417;7,07611
0,1279;7,48594;-0,03416;7,48594
0,1292;7,95013;-0,03416;7,95013
0,1305;8,39709;-0,03415;8,39709
0,1318;8,82589;-0,03415;8,82589
0,1331;9,23654;-0,03414;9,23654
0,1346;9,68350;-0,03414;9,68350
0,1361;10,10684;-0,03413;10,10684
0,1376;10,50829;-0,03411;10,50829
0,1393;10,93837;-0,03410;10,93837
0,1410;11,35274;-0,03409;11,35274
0,1427;11,75803;-0,03408;11,75803
0,1444;12,15832;-0,03406;12,15832
0,1462;12,60028;-0,03404;12,60028
0,1481;13,04165;-0,03401;13,04165
0,1500;13,48594;-0,03399;13,48594
0,1517;13,89042;-0,03399;13,89042
0,1534;14,30013;-0,03397;14,30013
0,1551;14,71404;-0,03394;14,71404
0,1568;15,13108;-0,03391;15,13108
0,1585;15,55116;-0,03388;15,55116
0,1601;15,97449;-0,03385;15,97449
0,1618;16,40143;-0,03382;16,40143
0,1635;16,83094;-0,03378;16,83094
0,1652;17,26207;-0,03374;17,26207
0,1669;17,69425;-0,03370;17,69425
0,1686;18,12747;-0,03370;18,12747
0,1703;18,56256;-0,03365;18,56256
0,1720;18,99952;-0,03361;18,99952
0,1737;19,43775;-0,03356;19,43775
0,1753;19,87656;-0,03351;19,87656
0,1770;20,31607;-0,03346;20,31607
0,1787;20,75710;-0,03340;20,75710
0,1804;21,20057;-0,03335;21,20057
0,1821;21,64648;-0,03329;21,64648
0,1838;22,09403;-0,03323;22,09403
0,1855;22,54250;-0,03323;22,54250
0,1872;22,99168;-0,03316;22,99168
0,1887;23,39208;-0,03310;23,39208
0,1902;23,79400;-0,03302;23,79400
0,1917;24,19719;-0,03296;24,19719
0,1932;24,60132;-0,03288;24,60132
0,1947;25,00545;-0,03288;25,00545
0,1962;25,40946;-0,03280;25,40946
0,1977;25,81336;-0,03273;25,81336
0,1992;26,21748;-0,03264;26,21748
0,2007;26,62208;-0,03256;26,62208
0,2022;27,02714;-0,03256;27,02714
0,2037;27,43208;-0,03248;27,43208
0,2052;27,83656;-0,03238;27,83656
0,2067;28,24022;-0,03229;28,24022
0,2082;28,64295;-0,03220;28,64295
0,2097;29,04498;-0,03220;29,04498
0,2112;29,44632;-0,03211;29,44632
0,2127;29,84684;-0,03200;29,84684
0,2144;30,29566;-0,03190;30,29566
0,2161;30,74239;-0,03180;30,74239
0,2178;31,18691;-0,03170;31,18691
0,2195;31,62922;-0,03159;31,62922
0,2212;32,06954;-0,03159;32,06954
0,2228;32,50778;-0,03148;32,50778
0,2245;32,94380;-0,03136;32,94380
0,2262;33,37760;-0,03125;33,37760
0,2279;33,80909;-0,03113;33,80909
0,2296;34,23824;-0,03102;34,23824
0,2313;34,66541;-0,03090;34,66541
0,2330;35,09049;-0,03077;35,09049
0,2347;35,51371;-0,03065;35,51371
0,2364;35,93483;-0,03052;35,93483
0,2381;36,35386;-0,03052;36,35386
0,2397;36,77056;-0,03040;36,77056
0,2414;37,18481;-0,03027;37,18481
0,2431;37,59651;-0,03013;37,59651
0,2448;38,00552;-0,03000;38,00552
0,2465;38,41210;-0,02987;38,41210
0,2482;38,81599;-0,02974;38,81599
0,2499;39,21767;-0,02960;39,21767
0,2518;39,66196;-0,02946;39,66196
0,2536;40,10415;-0,02931;40,10415
0,2555;40,54459;-0,02917;40,54459
0,2574;40,98294;-0,02903;40,98294
0,2593;41,41919;-0,02888;41,41919
0,2611;41,85265;-0,02874;41,85265
0,2630;42,28344;-0,02859;42,28344
0,2649;42,71143;-0,02844;42,71143
0,2668;43,13674;-0,02829;43,13674
0,2687;43,55949;-0,02813;43,55949
0,2705;43,98003;-0,02799;43,98003
0,2724;44,39824;-0,02783;44,39824
0,2743;44,81459;-0,02768;44,81459
0,2762;45,22908;-0,02752;45,22908
0,2780;45,64205;-0,02737;45,64205
0,2799;46,05363;-0,02721;46,05363
0,2818;46,46381;-0,02705;46,46381
0,2837;46,87248;-0,02688;46,87248
0,2856;47,27963;-0,02673;47,27963
0,2874;47,68504;-0,02657;47,68504
0,2893;48,08905;-0,02640;48,08905
0,2912;48,49155;-0,02625;48,49155
0,2931;48,89289;-0,02608;48,89289
0,2949;49,29294;-0,02592;49,29294
0,2970;49,73141;-0,02576;49,73141
0,2991;50,16847;-0,02559;50,16847
0,3011;50,60415;-0,02542;50,60415
0,3032;51,03830;-0,02526;51,03830
0,3053;51,47141;-0,02510;51,47141
0,3073;51,90348;-0,02493;51,90348
0,3094;52,33496;-0,02476;52,33496
0,3115;52,76562;-0,02442;52,76562
0,3135;53,19536;-0,02426;53,19536
0,3156;53,62405;-0,02409;53,62405
0,3177;54,05146;-0,02392;54,05146
0,3197;54,47781;-0,02375;54,47781
0,3218;54,90313;-0,02358;54,90313
0,3239;55,32762;-0,02341;55,32762
0,3259;55,75142;-0,02325;55,75142
0,3280;56,17429;-0,02307;56,17429
0,3300;56,59600;-0,02290;56,59600
0,3321;57,01642;-0,02256;57,01642
0,3342;57,43568;-0,02239;57,43568
0,3362;57,85366;-0,02222;57,85366
0,3383;58,27047;-0,02205;58,27047
0,3404;58,68624;-0,02188;58,68624
0,3424;59,10096;-0,02171;59,10096
0,3445;59,51463;-0,02154;59,51463
0,3466;59,92726;-0,02137;59,92726
0,3486;60,33884;-0,02120;60,33884
0,3507;60,74925;-0,02102;60,74925
0,3528;61,15838;-0,02068;61,15838
0,3548;61,56612;-0,02052;61,56612
0,3569;61,97223;-0,02035;61,97223
0,3590;62,37670;-0,02017;62,37670
0,3610;62,78002;-0,02001;62,78002
0,3631;63,18228;-0,01983;63,18228
0,3652;63,58373;-0,01966;63,58373
0,3672;63,98437;-0,01950;63,98437
0,3695;64,42039;-0,01932;64,42039
0,3717;64,85513;-0,01899;64,85513
0,3740;65,28801;-0,01881;65,28801
0,3762;65,71902;-0,01865;65,71902
0,3785;66,14829;-0,01848;66,14829
0,3807;66,57617;-0,01831;66,57617
0,3830;67,00299;-0,01797;67,00299
0,3852;67,42912;-0,01780;67,42912
0,3875;67,85478;-0,01764;67,85478
0,3897;68,27963;-0,01747;68,27963
0,3920;68,70343;-0,01730;68,70343
0,3943;69,12606;-0,01697;69,12606
0,3965;69,54730;-0,01680;69,54730
0,3988;69,96737;-0,01664;69,96737
0,4010;70,38652;-0,01647;70,38652
0,4033;70,80508;-0,01630;70,80508
0,4055;71,22306;-0,01597;71,22306
0,4078;71,64057;-0,01580;71,64057
0,4100;72,05715;-0,01564;72,05715
0,4123;72,47269;-0,01548;72,47269
0,4145;72,88706;-0,01531;72,88706
0,4168;73,30027;-0,01498;73,30027
0,4190;73,71231;-0,01482;73,71231
0,4213;74,12307;-0,01466;74,12307
0,4235;74,53290;-0,01449;74,53290
0,4258;74,94192;-0,01433;74,94192
0,4280;75,35012;-0,01401;75,35012
0,4303;75,75728;-0,01384;75,75728
0,4326;76,16361;-0,01368;76,16361
0,4348;76,56879;-0,01352;76,56879
0,4371;76,97280;-0,01336;76,97280
0,4393;77,37542;-0,01304;77,37542
0,4416;77,77675;-0,01288;77,77675
0,4438;78,17704;-0,01271;78,17704
0,4463;78,60992;-0,01255;78,60992
0,4487;79,04233;-0,01223;79,04233
0,4511;79,47428;-0,01207;79,47428
0,4536;79,90552;-0,01192;79,90552
0,4560;80,33572;-0,01160;80,33572
0,4585;80,76476;-0,01143;80,76476
0,4609;81,19229;-0,01128;81,19229
0,4633;81,61818;-0,01112;81,61818
0,4658;82,04256;-0,01081;82,04256
0,4682;82,46566;-0,01065;82,46566
0,4707;82,88748;-0,01049;82,88748
0,4731;83,30802;-0,01018;83,30802
0,4755;83,72693;-0,01002;83,72693
0,4780;84,14375;-0,00986;84,14375
0,4804;84,55870;-0,00956;84,55870
0,4829;84,97191;-0,00940;84,97191
0,4853;85,38383;-0,00924;85,38383
0,4877;85,79471;-0,00908;85,79471
0,4902;86,20466;-0,00878;86,20466
0,4926;86,61379;-0,00862;86,61379
0,4951;87,02188;-0,00846;87,02188
0,4975;87,42892;-0,00816;87,42892
0,5000;87,83467;-0,00801;87,83467
0,5024;88,23880;-0,00785;88,23880
0,5048;88,64118;-0,00755;88,64118
0,5073;89,04136;-0,00739;89,04136
0,5099;89,47004;-0,00724;89,47004
0,5125;89,89640;-0,00694;89,89640
0,5152;90,32067;-0,00678;90,32067
0,5178;90,74307;-0,00663;90,74307
0,5204;91,16384;-0,00632;91,16384
0,5230;91,58299;-0,00618;91,58299
0,5257;92,00073;-0,00587;92,00073
0,5283;92,41708;-0,00572;92,41708
0,5309;92,83215;-0,00558;92,83215
0,5336;93,24582;-0,00527;93,24582
0,5362;93,65845;-0,00512;93,65845
0,5388;94,07003;-0,00482;94,07003
0,5414;94,48056;-0,00467;94,48056
0,5441;94,89004;-0,00452;94,89004
0,5467;95,29847;-0,00422;95,29847
0,5493;95,70598;-0,00408;95,70598
0,5520;96,11243;-0,00378;96,11243
0,5546;96,51784;-0,00363;96,51784
0,5572;96,92220;-0,00348;96,92220
0,5598;97,32598;-0,00319;97,32598
0,5625;97,72953;-0,00304;97,72953
0,5651;98,13319;-0,00274;98,13319
0,5677;98,53674;-0,00259;98,53674
0,5704;98,93993;-0,00245;98,93993
0,5730;99,34255;-0,00215;99,34255
0,5756;99,74481;-0,00200;99,74481
0,5782;100,14661;-0,00171;100,14661
0,5809;100,54783;-0,00157;100,54783
0,5835;100,94858;-0,00142;100,94858
0,5861;101,34922;-0,00112;101,34922
0,5888;101,74974;-0,00097;101,74974
0,5914;102,14991;-0,00069;102,14991
0,5942;102,57825;-0,00054;102,57825
0,5970;103,00612;-0,00024;103,00612
0,5998;103,43271;-0,00010;103,43271
0,6026;103,85581;0,00019;103,85581
0,6055;104,27391;0,00034;104,27391
0,6083;104,68584;0,00063;104,68584
0,6111;105,09218;0,00078;105,09218
0,6139;105,49409;0,00106;105,49409
0,6169;105,91894;0,00121;105,91894
0,6199;106,33983;0,00151;106,33983
0,6229;106,75664;0,00165;106,75664
0,6259;107,16915;0,00194;107,16915
0,6289;107,57677;0,00224;107,57677
0,6319;107,97846;0,00238;107,97846
0,6351;108,39806;0,00267;108,39806
0,6383;108,80999;0,00297;108,80999
0,6415;109,21459;0,00312;109,21459
0,6449;109,63606;0,00341;109,63606
0,6483;110,05206;0,00371;110,05206
0,6516;110,46468;0,00402;110,46468
0,6550;110,87603;0,00431;110,87603
0,6584;111,28772;0,00447;111,28772
0,6618;111,70116;0,00477;111,70116
0,6652;112,11681;0,00508;112,11681
0,6685;112,53584;0,00539;112,53584
0,6719;112,95906;0,00571;112,95906
0,6751;113,36342;0,00588;113,36342
0,6783;113,77290;0,00619;113,77290
0,6815;114,18785;0,00652;114,18785
0,6847;114,60758;0,00669;114,60758
0,6879;115,03044;0,00702;115,03044
0,6911;115,45471;0,00736;115,45471
0,6941;115,85511;0,00753;115,85511
0,6971;116,25517;0,00788;116,25517
0,7003;116,67268;0,00823;116,67268
0,7035;117,07960;0,00840;117,07960
0,7067;117,47977;0,00877;117,47977
0,7100;117,88111;0,00913;117,88111
0,7144;118,29501;0,00951;118,29501
0,7224;118,69879;0,01031;118,69879
1,2539;118,93857;0,61153;118,93857
1,2810;119,35061;0,64494;119,35061
1,2847;119,75462;0,64952;119,75462
1,2877;120,15549;0,65405;120,15549
1,2907;120,57813;0,65629;120,57813
1,2939;120,99936;0,66075;120,99936
1,2977;121,41641;0,66516;121,41641
1,3025;121,82461;0,66952;121,82461
1,3108;122,22700;0,68025;122,22700
1,3251;122,63008;0,69496;122,63008
1,3331;123,04072;0,70537;123,04072
1,3395;123,44159;0,71163;123,44159
1,3465;123,84642;0,72004;123,84642
1,3549;124,25311;0,72857;124,25311
1,3636;124,65595;0,73950;124,65595
1,3711;125,06602;0,74852;125,06602
1,3769;125,47236;0,75547;125,47236
1,3833;125,88056;0,76259;125,88056
1,5806;126,25722;1,36354;126,25722
1,6688;126,29144;1,97883;126,29144
1,7345;126,30971;2,57936;126,30971
1,7927;126,32438;3,19207;126,32438
1,8472;126,33660;3,80995;126,33660
1,8997;126,34708;4,42504;126,34708
1,9523;126,35557;5,03905;126,35557
2,0068;126,36593;5,65778;126,36593
2,0631;126,37129;6,26714;126,37129
2,1232;126,38258;6,87427;126,38258
2,1870;126,38956;7,46698;126,38956
2,1872;126,38968;7,46698;126,38968
