Part protocol
Network name;Part_OP10_MP-002_2020-08-26_15-58-35_0033_OK.csv
Protocol version;2.01.00

Index;Result information;Process values - curve related;Process values - EO related;Evaluation objects settings;Switch signal settings;Device information;Channel-X settings;Channel-Y settings;Cycle control settings;Evaluation settings;Trigger Y settings;Block settings;Measuring curve;Measuring points;Sequence;
Line;10;30;40;70;100;120;150;190;220;240;250;260;270;280;570;



Result information
Date;2020/08/26
Time;15:58:35
Cycle number;33
Total result;OK
Triggered switch signals
Part serial number;0033
Measuring program name;D57-Right
Measuring program number;2
Zero X offset;0,00;mm
Tara Y offset;0,0;kN









Process values - curve related
Block X;116,09;mm;XMIN-X;0,10;mm
Block Y;4,5;kN;XMIN-Y;0,0;kN
Ref X;-;mm;XMAX-X;116,09;mm
Peak-peak X;115,99;mm;XMAX-Y;4,5;kN
Peak-peak Y;4,6;kN;YMIN-X;0,10;mm
;;;YMIN-Y;0,0;kN
;;;YMAX-X;116,09;mm
;;;YMAX-Y;4,5;kN

Process values - EO related;Result;Entry;Exit;XMIN-X;XMIN-Y;XMAX-X;XMAX-Y;YMIN-Y;YMIN-X;YMAX-Y;YMAX-X
;;;;mm;kN;mm;kN;kN;mm;kN;mm
EO-01;OK;0,7;0,7;;;;;0,7;115,00;0,7;115,16;;;;;;
EO-02;OK;;116,07;116,05;2,3;116,07;3,3;2,3;116,05;;;;;;;;
EO-03;None;
EO-04;None;
























Evaluation objects settings;Reaction;X reference;Y-Reference;XMin;XMax;YMin;YMax;Entry;Exit;Curve part;Catch zone X;Catch zone Y
EO-01;UNI-BOX;ABSOLUTE;-;115,00;115,50;0,4;2,0;LEFT;RIGHT;ANY;+50%;+50%
EO-02;UNI-BOX;ABSOLUTE;-;115,40;117,10;2,3;3,3;ANY;ABOVE;ANY;+50%;+50%
EO-03;OFF
EO-04;OFF

























Switch signal settings;Channel;Threshold at;;Trigger from;Reference;Latch until
Type S1;OFF
Type S2;OFF

















Device information
Device type;maXYmos BL
Device type number;5867B1011
Device serial number;5182443
Firmware version;2.3.2 (r22473-BL_v2.3.x)
-
-
-
-
-
IP Address;10.0.0.18
Network name;OP10
Profibus address;10
-
-
-
Station name;OP10
Company name;
Comment;











Channel-X settings
Use the settings from global setup;True
Sensor-X type;Â±10V
Unit;mm
Used range from;0,00;mm
Used range to;200,00;mm
Decimal places;XXXX.XX
Scaling by;Teach-In
Point 1;0,00;mm;-0,350;%
Point 2;200,00;mm;10,000;%
Invert signal;FALSE
Filter;20 Hz
Test point;0,00;mm
Tolerance;2,00;mm
Enable sensor test by dig-input;FALSE
Zoom from;100,00;mm
Zoom to;120,00;mm























Channel-Y settings
Use the settings from global setup;True
Sensor-Y type;Strain Gage
Unit;kN
Used range from;0,0;kN
Used range to;20,0;kN
Decimal places;XXXXX.X
Scaling by;Teach-In
Point 1;0,0;kN;-0,01562;%
Point 2;20,0;kN;2,00000;%
Invert signal;FALSE
Filter;1 Hz
Piezo reset;-
Test point;0,0;kN
Tolerance;0,1;kN
Enable sensor test by dig-input;FALSE
Zoom from;0,0;kN
Zoom to;5,0;kN












Cycle control settings
Use the settings from global setup;True
Measuring function;Y (X)
Delta-X;Automatic
START condition;Dig-Input
STOP condition;Dig-Input
Cycle time out;20,00;s
Turning point RIGHT;YMAX
Turning point LEFT;NONE
Cut curve at;NONE










Evaluation settings
Capture only first NOK-EO for statistics;False
Hysteresis-X;0,0;%
Hysteresis-Y;100,0;%






Trigger Y settings
Threshold;1,8;kN
Value X at TRIGGER Y;0,00;mm
Approach from;BELOW






Block settings
Value X at block;XMAX
Block at;0,00;mm







Measuring curve
Number of measuring points;287
Ref. Graph on;ABSOLUTE
Curve segments;0;286;285;287;


Time;X(ABSOLUTE);Y;X (ABSOLUTE)


s;mm;kN;mm
0,0000;0,09815;-0,03491;0,09815
0,1060;0,51217;-0,03491;0,51217
0,1094;0,92398;-0,03490;0,92398
0,1118;1,34545;-0,03490;1,34545
0,1139;1,78799;-0,03489;1,78799
0,1156;2,20923;-0,03489;2,20923
0,1171;2,62628;-0,03488;2,62628
0,1186;3,07685;-0,03487;3,07685
0,1199;3,49040;-0,03487;3,49040
0,1212;3,91350;-0,03487;3,91350
0,1225;4,33882;-0,03486;4,33882
0,1239;4,76075;-0,03486;4,76075
0,1252;5,17536;-0,03485;5,17536
0,1265;5,57995;-0,03484;5,57995
0,1280;6,02761;-0,03482;6,02761
0,1295;6,45804;-0,03482;6,45804
0,1310;6,87160;-0,03480;6,87160
0,1327;7,31961;-0,03478;7,31961
0,1344;7,75377;-0,03476;7,75377
0,1361;8,17792;-0,03473;8,17792
0,1378;8,59508;-0,03471;8,59508
0,1394;9,00840;-0,03468;9,00840
0,1411;9,42056;-0,03464;9,42056
0,1428;9,83377;-0,03460;9,83377
0,1445;10,24954;-0,03460;10,24954
0,1462;10,66810;-0,03457;10,66810
0,1479;11,08969;-0,03452;11,08969
0,1496;11,51395;-0,03448;11,51395
0,1513;11,94008;-0,03442;11,94008
0,1530;12,36737;-0,03436;12,36737
0,1547;12,79466;-0,03431;12,79466
0,1563;13,22079;-0,03424;13,22079
0,1580;13,64470;-0,03417;13,64470
0,1597;14,06548;-0,03410;14,06548
0,1614;14,48264;-0,03410;14,48264
0,1631;14,89561;-0,03402;14,89561
0,1648;15,30440;-0,03394;15,30440
0,1665;15,70888;-0,03385;15,70888
0,1684;16,15304;-0,03376;16,15304
0,1702;16,59197;-0,03367;16,59197
0,1721;17,02578;-0,03357;17,02578
0,1740;17,45494;-0,03347;17,45494
0,1759;17,87990;-0,03336;17,87990
0,1777;18,30149;-0,03323;18,30149
0,1796;18,72040;-0,03311;18,72040
0,1815;19,13721;-0,03298;19,13721
0,1834;19,55228;-0,03286;19,55228
0,1853;19,96595;-0,03272;19,96595
0,1871;20,37858;-0,03258;20,37858
0,1890;20,79039;-0,03242;20,79039
0,1909;21,20185;-0,03227;21,20185
0,1928;21,61320;-0,03211;21,61320
0,1946;22,02489;-0,03194;22,02489
0,1965;22,43693;-0,03177;22,43693
0,1984;22,84956;-0,03159;22,84956
0,2003;23,26265;-0,03141;23,26265
0,2021;23,67632;-0,03122;23,67632
0,2040;24,09069;-0,03102;24,09069
0,2059;24,50599;-0,03082;24,50599
0,2078;24,92211;-0,03061;24,92211
0,2097;25,33893;-0,03039;25,33893
0,2115;25,75632;-0,03017;25,75632
0,2134;26,17430;-0,02994;26,17430
0,2153;26,59263;-0,02971;26,59263
0,2172;27,01154;-0,02947;27,01154
0,2190;27,43092;-0,02923;27,43092
0,2209;27,85111;-0,02897;27,85111
0,2228;28,27188;-0,02871;28,27188
0,2247;28,69335;-0,02844;28,69335
0,2266;29,11529;-0,02817;29,11529
0,2284;29,53757;-0,02789;29,53757
0,2303;29,96021;-0,02761;29,96021
0,2322;30,38343;-0,02732;30,38343
0,2341;30,80722;-0,02701;30,80722
0,2359;31,23184;-0,02671;31,23184
0,2378;31,65715;-0,02640;31,65715
0,2397;32,08339;-0,02609;32,08339
0,2416;32,51057;-0,02576;32,51057
0,2435;32,93844;-0,02543;32,93844
0,2453;33,36690;-0,02510;33,36690
0,2472;33,79593;-0,02476;33,79593
0,2491;34,22509;-0,02440;34,22509
0,2510;34,65436;-0,02405;34,65436
0,2528;35,08316;-0,02369;35,08316
0,2547;35,51162;-0,02332;35,51162
0,2566;35,93914;-0,02295;35,93914
0,2585;36,36585;-0,02256;36,36585
0,2603;36,79151;-0,02218;36,79151
0,2622;37,21601;-0,02179;37,21601
0,2641;37,63957;-0,02140;37,63957
0,2660;38,06186;-0,02099;38,06186
0,2679;38,48310;-0,02058;38,48310
0,2697;38,90282;-0,02016;38,90282
0,2716;39,32115;-0,01974;39,32115
0,2735;39,73808;-0,01931;39,73808
0,2754;40,15327;-0,01889;40,15327
0,2772;40,56694;-0,01845;40,56694
0,2791;40,97852;-0,01801;40,97852
0,2810;41,38812;-0,01755;41,38812
0,2829;41,79527;-0,01710;41,79527
0,2848;42,20010;-0,01665;42,20010
0,2866;42,60248;-0,01618;42,60248
0,2887;43,04234;-0,01571;43,04234
0,2908;43,47929;-0,01524;43,47929
0,2928;43,91334;-0,01476;43,91334
0,2949;44,34447;-0,01380;44,34447
0,2970;44,77281;-0,01330;44,77281
0,2990;45,19847;-0,01280;45,19847
0,3011;45,62145;-0,01230;45,62145
0,3032;46,04199;-0,01180;46,04199
0,3052;46,46020;-0,01129;46,46020
0,3073;46,87609;-0,01078;46,87609
0,3093;47,28953;-0,01026;47,28953
0,3114;47,70041;-0,00974;47,70041
0,3135;48,10896;-0,00921;48,10896
0,3155;48,51518;-0,00815;48,51518
0,3176;48,91908;-0,00761;48,91908
0,3197;49,32088;-0,00707;49,32088
0,3219;49,75690;-0,00654;49,75690
0,3242;50,19071;-0,00599;50,19071
0,3264;50,62230;-0,00544;50,62230
0,3287;51,05192;-0,00433;51,05192
0,3309;51,47979;-0,00378;51,47979
0,3332;51,90639;-0,00321;51,90639
0,3354;52,33193;-0,00265;52,33193
0,3377;52,75666;-0,00209;52,75666
0,3400;53,18081;-0,00095;53,18081
0,3422;53,60426;-0,00037;53,60426
0,3445;54,02690;0,00020;54,02690
0,3467;54,44918;0,00078;54,44918
0,3490;54,87123;0,00136;54,87123
0,3512;55,29340;0,00252;55,29340
0,3535;55,71581;0,00310;55,71581
0,3557;56,13809;0,00369;56,13809
0,3580;56,56038;0,00427;56,56038
0,3602;56,98220;0,00487;56,98220
0,3625;57,40390;0,00605;57,40390
0,3647;57,82537;0,00664;57,82537
0,3670;58,24673;0,00724;58,24673
0,3692;58,66808;0,00783;58,66808
0,3715;59,08955;0,00842;59,08955
0,3737;59,51079;0,00962;59,51079
0,3760;59,93191;0,01022;59,93191
0,3783;60,35234;0,01082;60,35234
0,3805;60,77241;0,01142;60,77241
0,3828;61,19190;0,01201;61,19190
0,3850;61,61116;0,01322;61,61116
0,3873;62,03007;0,01382;62,03007
0,3895;62,44864;0,01442;62,44864
0,3918;62,86661;0,01502;62,86661
0,3940;63,28366;0,01562;63,28366
0,3963;63,69966;0,01683;63,69966
0,3985;64,11438;0,01743;64,11438
0,4008;64,52771;0,01803;64,52771
0,4030;64,93952;0,01863;64,93952
0,4053;65,34946;0,01922;65,34946
0,4075;65,75755;0,02043;65,75755
0,4098;66,16377;0,02102;66,16377
0,4120;66,56813;0,02162;66,56813
0,4143;66,97098;0,02221;66,97098
0,4165;67,37232;0,02281;67,37232
0,4188;67,77249;0,02400;67,77249
0,4212;68,20467;0,02459;68,20467
0,4237;68,63580;0,02519;68,63580
0,4261;69,06577;0,02577;69,06577
0,4286;69,49422;0,02695;69,49422
0,4310;69,92116;0,02754;69,92116
0,4334;70,34659;0,02812;70,34659
0,4359;70,77074;0,02929;70,77074
0,4383;71,19361;0,02986;71,19361
0,4408;71,61520;0,03044;71,61520
0,4432;72,03527;0,03159;72,03527
0,4456;72,45371;0,03217;72,45371
0,4481;72,87065;0,03274;72,87065
0,4505;73,28595;0,03330;73,28595
0,4530;73,69985;0,03444;73,69985
0,4554;74,11236;0,03501;74,11236
0,4579;74,52347;0,03556;74,52347
0,4603;74,93296;0,03668;74,93296
0,4627;75,34104;0,03724;75,34104
0,4652;75,74773;0,03779;75,74773
0,4676;76,15337;0,03889;76,15337
0,4701;76,55831;0,03943;76,55831
0,4725;76,96244;0,03998;76,96244
0,4749;77,36622;0,04051;77,36622
0,4774;77,76942;0,04159;77,76942
0,4798;78,17192;0,04213;78,17192
0,4823;78,57372;0,04265;78,57372
0,4847;78,97482;0,04371;78,97482
0,4871;79,37499;0,04424;79,37499
0,4898;79,80519;0,04475;79,80519
0,4924;80,23411;0,04579;80,23411
0,4950;80,66129;0,04630;80,66129
0,4977;81,08660;0,04732;81,08660
0,5003;81,50981;0,04783;81,50981
0,5029;81,93129;0,04833;81,93129
0,5055;82,35124;0,04933;82,35124
0,5082;82,77015;0,04982;82,77015
0,5108;83,18848;0,05080;83,18848
0,5134;83,60623;0,05128;83,60623
0,5161;84,02339;0,05176;84,02339
0,5187;84,43986;0,05272;84,43986
0,5213;84,85574;0,05320;84,85574
0,5239;85,27093;0,05413;85,27093
0,5266;85,68565;0,05460;85,68565
0,5292;86,09990;0,05507;86,09990
0,5318;86,51381;0,05598;86,51381
0,5345;86,92737;0,05644;86,92737
0,5371;87,34011;0,05733;87,34011
0,5397;87,75203;0,05778;87,75203
0,5423;88,16303;0,05822;88,16303
0,5450;88,57321;0,05910;88,57321
0,5476;88,98258;0,05954;88,98258
0,5502;89,39089;0,06039;89,39089
0,5528;89,79805;0,06082;89,79805
0,5555;90,20369;0,06124;90,20369
0,5581;90,60770;0,06208;90,60770
0,5607;91,01043;0,06249;91,01043
0,5634;91,41165;0,06331;91,41165
0,5660;91,81170;0,06372;91,81170
0,5688;92,23923;0,06412;92,23923
0,5716;92,66536;0,06493;92,66536
0,5744;93,09020;0,06531;93,09020
0,5773;93,51330;0,06610;93,51330
0,5801;93,93466;0,06648;93,93466
0,5829;94,35427;0,06725;94,35427
0,5857;94,77236;0,06763;94,77236
0,5885;95,18894;0,06838;95,18894
0,5913;95,60390;0,06875;95,60390
0,5942;96,01757;0,06948;96,01757
0,5970;96,42973;0,06984;96,42973
0,5998;96,84084;0,07056;96,84084
0,6026;97,25090;0,07091;97,25090
0,6054;97,66027;0,07162;97,66027
0,6082;98,06917;0,07197;98,06917
0,6110;98,47819;0,07265;98,47819
0,6139;98,88709;0,07300;98,88709
0,6167;99,29587;0,07366;99,29587
0,6195;99,70407;0,07400;99,70407
0,6223;100,11158;0,07465;100,11158
0,6251;100,51803;0,07499;100,51803
0,6279;100,92356;0,07563;100,92356
0,6308;101,32850;0,07595;101,32850
0,6336;101,73321;0,07658;101,73321
0,6364;102,13780;0,07689;102,13780
0,6392;102,54228;0,07751;102,54228
0,6420;102,94629;0,07781;102,94629
0,6448;103,34996;0,07841;103,34996
0,6477;103,75339;0,07872;103,75339
0,6505;104,15635;0,07930;104,15635
0,6533;104,55885;0,07960;104,55885
0,6561;104,96111;0,08018;104,96111
0,6589;105,36315;0,08047;105,36315
0,6617;105,76460;0,08103;105,76460
0,6646;106,16535;0,08131;106,16535
0,6676;106,59043;0,08187;106,59043
0,6706;107,00911;0,08241;107,00911
0,6736;107,41649;0,08269;107,41649
0,6768;107,83261;0,08323;107,83261
0,6801;108,24803;0,08375;108,24803
0,6839;108,66776;0,08428;108,66776
0,6882;109,07805;0,08480;109,07805
0,6940;109,48311;0,08558;109,48311
0,7408;109,88328;0,09227;109,88328
0,7633;110,28578;0,09632;110,28578
0,7712;110,69340;0,09790;110,69340
0,7772;111,09788;0,09918;111,09788
0,7825;111,49851;0,10055;111,49851
0,7875;111,90578;0,10200;111,90578
0,7928;112,31399;0,10355;112,31399
0,7999;112,71846;0,10580;112,71846
1,2738;113,12539;0,66666;113,12539
1,2800;113,53883;0,67299;113,53883
1,2843;113,95098;0,67922;113,95098
1,2882;114,35709;0,68332;114,35709
1,2922;114,76110;0,68738;114,76110
1,2965;115,16302;0,69139;115,16302
1,3023;115,56354;0,69735;115,56354
1,3930;115,96359;0,81595;115,96359
1,5133;116,02307;1,41652;116,02307
1,5753;116,04379;2,03353;116,04379
1,6241;116,05834;2,64727;116,05834
1,6673;116,06916;3,25451;116,06916
1,7086;116,07883;3,86667;116,07883
1,7499;116,08709;4,48806;116,08709
1,7536;116,08767;4,54437;116,08767
1,7550;116,08790;4,54437;116,08790
