Part protocol
Network name;Part_OP10_MP-001_2020-08-26_15-58-41_0033_OK.csv
Protocol version;2.01.00

Index;Result information;Process values - curve related;Process values - EO related;Evaluation objects settings;Switch signal settings;Device information;Channel-X settings;Channel-Y settings;Cycle control settings;Evaluation settings;Trigger Y settings;Block settings;Measuring curve;Measuring points;Sequence;
Line;10;30;40;70;100;120;150;190;220;240;250;260;270;280;600;



Result information
Date;2020/08/26
Time;15:58:41
Cycle number;33
Total result;OK
Triggered switch signals
Part serial number;0033
Measuring program name;D57-Left
Measuring program number;1
Zero X offset;0,00;mm
Tara Y offset;0,0;kN









Process values - curve related
Block X;126,44;mm;XMIN-X;-0,18;mm
Block Y;7,4;kN;XMIN-Y;0,0;kN
Ref X;-;mm;XMAX-X;126,44;mm
Peak-peak X;126,61;mm;XMAX-Y;7,4;kN
Peak-peak Y;7,4;kN;YMIN-X;-0,18;mm
;;;YMIN-Y;0,0;kN
;;;YMAX-X;126,44;mm
;;;YMAX-Y;7,4;kN

Process values - EO related;Result;Entry;Exit;XMIN-X;XMIN-Y;XMAX-X;XMAX-Y;YMIN-Y;YMIN-X;YMAX-Y;YMAX-X
;;;;mm;kN;mm;kN;kN;mm;kN;mm
EO-01;OK;0,8;0,9;;;;;0,8;124,50;0,9;125,42;;;;;;
EO-02;OK;126,39;126,41;126,39;4,5;126,41;5,2;;;;;;;;;;
EO-03;None;
EO-04;None;
























Evaluation objects settings;Reaction;X reference;Y-Reference;XMin;XMax;YMin;YMax;Entry;Exit;Curve part;Catch zone X;Catch zone Y
EO-01;UNI-BOX;ABSOLUTE;-;124,50;125,70;0,5;3,0;LEFT;RIGHT;ANY;+50%;+50%
EO-02;UNI-BOX;ABSOLUTE;-;125,80;127,20;4,5;5,5;BELOW;ABOVE;ANY;+50%;+50%
EO-03;OFF
EO-04;OFF

























Switch signal settings;Channel;Threshold at;;Trigger from;Reference;Latch until
Type S1;OFF
Type S2;OFF

















Device information
Device type;maXYmos BL
Device type number;5867B1011
Device serial number;5182443
Firmware version;2.3.2 (r22473-BL_v2.3.x)
-
-
-
-
-
IP Address;10.0.0.18
Network name;OP10
Profibus address;10
-
-
-
Station name;OP10
Company name;
Comment;











Channel-X settings
Use the settings from global setup;True
Sensor-X type;Â±10V
Unit;mm
Used range from;0,00;mm
Used range to;200,00;mm
Decimal places;XXXX.XX
Scaling by;Teach-In
Point 1;0,00;mm;-0,350;%
Point 2;200,00;mm;10,000;%
Invert signal;FALSE
Filter;20 Hz
Test point;0,00;mm
Tolerance;2,00;mm
Enable sensor test by dig-input;FALSE
Zoom from;110,00;mm
Zoom to;133,11;mm























Channel-Y settings
Use the settings from global setup;True
Sensor-Y type;Strain Gage
Unit;kN
Used range from;0,0;kN
Used range to;20,0;kN
Decimal places;XXXXX.X
Scaling by;Teach-In
Point 1;0,0;kN;-0,01562;%
Point 2;20,0;kN;2,00000;%
Invert signal;FALSE
Filter;1 Hz
Piezo reset;-
Test point;0,0;kN
Tolerance;0,1;kN
Enable sensor test by dig-input;FALSE
Zoom from;0,0;kN
Zoom to;6,0;kN












Cycle control settings
Use the settings from global setup;True
Measuring function;Y (X)
Delta-X;Automatic
START condition;Dig-Input
STOP condition;Dig-Input
Cycle time out;20,00;s
Turning point RIGHT;YMAX
Turning point LEFT;NONE
Cut curve at;NONE










Evaluation settings
Capture only first NOK-EO for statistics;False
Hysteresis-X;0,0;%
Hysteresis-Y;100,0;%






Trigger Y settings
Threshold;1,9;kN
Value X at TRIGGER Y;0,00;mm
Approach from;BELOW






Block settings
Value X at block;XMAX
Block at;0,00;mm







Measuring curve
Number of measuring points;316
Ref. Graph on;ABSOLUTE
Curve segments;0;315;314;316;


Time;X(ABSOLUTE);Y;X (ABSOLUTE)


s;mm;kN;mm
0,0000;-0,17503;-0,03447;-0,17503
0,0975;0,22653;-0,03441;0,22653
0,1014;0,63660;-0,03440;0,63660
0,1042;1,04806;-0,03440;1,04806
0,1065;1,45102;-0,03440;1,45102
0,1086;1,87843;-0,03439;1,87843
0,1104;2,31515;-0,03439;2,31515
0,1121;2,74721;-0,03439;2,74721
0,1136;3,16205;-0,03438;3,16205
0,1151;3,60529;-0,03438;3,60529
0,1164;4,01628;-0,03438;4,01628
0,1178;4,44916;-0,03437;4,44916
0,1191;4,90345;-0,03437;4,90345
0,1202;5,30782;-0,03437;5,30782
0,1213;5,72300;-0,03436;5,72300
0,1225;6,14482;-0,03436;6,14482
0,1236;6,56839;-0,03435;6,56839
0,1247;6,98869;-0,03435;6,98869
0,1258;7,40179;-0,03435;7,40179
0,1270;7,80417;-0,03435;7,80417
0,1283;8,25718;-0,03434;8,25718
0,1296;8,69134;-0,03434;8,69134
0,1309;9,10664;-0,03432;9,10664
0,1324;9,55896;-0,03431;9,55896
0,1339;9,98916;-0,03430;9,98916
0,1354;10,39899;-0,03430;10,39899
0,1371;10,83897;-0,03428;10,83897
0,1388;11,26184;-0,03426;11,26184
0,1405;11,67353;-0,03424;11,67353
0,1422;12,07952;-0,03423;12,07952
0,1439;12,48307;-0,03421;12,48307
0,1455;12,88626;-0,03419;12,88626
0,1472;13,29074;-0,03416;13,29074
0,1489;13,69801;-0,03414;13,69801
0,1506;14,10971;-0,03414;14,10971
0,1523;14,52640;-0,03411;14,52640
0,1540;14,94799;-0,03408;14,94799
0,1557;15,37342;-0,03405;15,37342
0,1574;15,80234;-0,03401;15,80234
0,1591;16,23452;-0,03398;16,23452
0,1608;16,66984;-0,03395;16,66984
0,1624;17,10796;-0,03390;17,10796
0,1641;17,54805;-0,03386;17,54805
0,1658;17,98989;-0,03382;17,98989
0,1675;18,43360;-0,03382;18,43360
0,1692;18,87905;-0,03377;18,87905
0,1709;19,32647;-0,03373;19,32647
0,1726;19,77506;-0,03367;19,77506
0,1743;20,22459;-0,03362;20,22459
0,1758;20,62487;-0,03357;20,62487
0,1773;21,02609;-0,03351;21,02609
0,1788;21,42836;-0,03351;21,42836
0,1803;21,83179;-0,03345;21,83179
0,1818;22,23615;-0,03338;22,23615
0,1833;22,64074;-0,03332;22,64074
0,1848;23,04534;-0,03325;23,04534
0,1863;23,45005;-0,03325;23,45005
0,1878;23,85487;-0,03319;23,85487
0,1893;24,26016;-0,03311;24,26016
0,1908;24,66557;-0,03304;24,66557
0,1923;25,07086;-0,03297;25,07086
0,1938;25,47569;-0,03297;25,47569
0,1953;25,87982;-0,03288;25,87982
0,1968;26,28348;-0,03280;26,28348
0,1983;26,68703;-0,03272;26,68703
0,1998;27,09046;-0,03263;27,09046
0,2013;27,49354;-0,03263;27,49354
0,2028;27,89580;-0,03255;27,89580
0,2043;28,29702;-0,03246;28,29702
0,2060;28,74678;-0,03236;28,74678
0,2077;29,19467;-0,03227;29,19467
0,2094;29,64082;-0,03217;29,64082
0,2111;30,08510;-0,03207;30,08510
0,2128;30,52718;-0,03197;30,52718
0,2144;30,96692;-0,03197;30,96692
0,2161;31,40411;-0,03186;31,40411
0,2178;31,83896;-0,03176;31,83896
0,2195;32,27172;-0,03165;32,27172
0,2212;32,70227;-0,03154;32,70227
0,2229;33,13061;-0,03143;33,13061
0,2246;33,55674;-0,03131;33,55674
0,2263;33,98054;-0,03120;33,98054
0,2280;34,40213;-0,03108;34,40213
0,2297;34,82138;-0,03096;34,82138
0,2313;35,23855;-0,03096;35,23855
0,2330;35,65362;-0,03084;35,65362
0,2347;36,06636;-0,03072;36,06636
0,2364;36,47666;-0,03059;36,47666
0,2381;36,88463;-0,03046;36,88463
0,2398;37,29015;-0,03033;37,29015
0,2415;37,69346;-0,03020;37,69346
0,2432;38,09457;-0,03007;38,09457
0,2450;38,53792;-0,02994;38,53792
0,2469;38,97871;-0,02980;38,97871
0,2488;39,41729;-0,02966;39,41729
0,2507;39,85378;-0,02952;39,85378
0,2526;40,28864;-0,02938;40,28864
0,2544;40,72221;-0,02924;40,72221
0,2563;41,15474;-0,02911;41,15474
0,2582;41,58599;-0,02896;41,58599
0,2601;42,01584;-0,02882;42,01584
0,2619;42,44406;-0,02867;42,44406
0,2638;42,87054;-0,02852;42,87054
0,2657;43,29504;-0,02837;43,29504
0,2676;43,71779;-0,02823;43,71779
0,2695;44,13879;-0,02808;44,13879
0,2713;44,55829;-0,02793;44,55829
0,2732;44,97650;-0,02777;44,97650
0,2751;45,39355;-0,02763;45,39355
0,2770;45,80943;-0,02747;45,80943
0,2788;46,22415;-0,02732;46,22415
0,2807;46,63747;-0,02716;46,63747
0,2826;47,04917;-0,02700;47,04917
0,2845;47,45888;-0,02685;47,45888
0,2864;47,86685;-0,02669;47,86685
0,2882;48,27319;-0,02653;48,27319
0,2901;48,67825;-0,02638;48,67825
0,2920;49,08215;-0,02621;49,08215
0,2939;49,48523;-0,02605;49,48523
0,2957;49,88749;-0,02589;49,88749
0,2976;50,28883;-0,02573;50,28883
0,2995;50,68935;-0,02557;50,68935
0,3016;51,12851;-0,02540;51,12851
0,3036;51,56604;-0,02525;51,56604
0,3057;52,00218;-0,02508;52,00218
0,3078;52,43692;-0,02491;52,43692
0,3098;52,87050;-0,02476;52,87050
0,3119;53,30314;-0,02459;53,30314
0,3139;53,73509;-0,02442;53,73509
0,3160;54,16622;-0,02409;54,16622
0,3181;54,59631;-0,02392;54,59631
0,3201;55,02523;-0,02376;55,02523
0,3222;55,45275;-0,02359;55,45275
0,3243;55,87888;-0,02342;55,87888
0,3263;56,30361;-0,02326;56,30361
0,3284;56,72706;-0,02309;56,72706
0,3305;57,14934;-0,02292;57,14934
0,3325;57,57058;-0,02276;57,57058
0,3346;57,99077;-0,02259;57,99077
0,3367;58,40980;-0,02226;58,40980
0,3387;58,82755;-0,02209;58,82755
0,3408;59,24366;-0,02192;59,24366
0,3429;59,65815;-0,02176;59,65815
0,3449;60,07089;-0,02159;60,07089
0,3470;60,48212;-0,02142;60,48212
0,3491;60,89172;-0,02125;60,89172
0,3511;61,30015;-0,02108;61,30015
0,3532;61,70754;-0,02091;61,70754
0,3553;62,11388;-0,02075;62,11388
0,3573;62,51894;-0,02041;62,51894
0,3594;62,92260;-0,02025;62,92260
0,3614;63,32452;-0,02008;63,32452
0,3635;63,72504;-0,01991;63,72504
0,3658;64,16036;-0,01975;64,16036
0,3680;64,59440;-0,01958;64,59440
0,3703;65,02728;-0,01941;65,02728
0,3725;65,45899;-0,01908;65,45899
0,3748;65,88966;-0,01891;65,88966
0,3770;66,31881;-0,01875;66,31881
0,3793;66,74680;-0,01858;66,74680
0,3815;67,17363;-0,01841;67,17363
0,3838;67,59929;-0,01808;67,59929
0,3860;68,02402;-0,01791;68,02402
0,3883;68,44782;-0,01775;68,44782
0,3905;68,87080;-0,01759;68,87080
0,3928;69,29321;-0,01742;69,29321
0,3951;69,71468;-0,01709;69,71468
0,3973;70,13510;-0,01693;70,13510
0,3996;70,55459;-0,01677;70,55459
0,4018;70,97292;-0,01660;70,97292
0,4041;71,38997;-0,01643;71,38997
0,4063;71,80562;-0,01611;71,80562
0,4086;72,22011;-0,01595;72,22011
0,4108;72,63355;-0,01579;72,63355
0,4131;73,04652;-0,01563;73,04652
0,4153;73,45926;-0,01546;73,45926
0,4176;73,87165;-0,01514;73,87165
0,4198;74,28347;-0,01498;74,28347
0,4221;74,69446;-0,01481;74,69446
0,4243;75,10441;-0,01466;75,10441
0,4266;75,51319;-0,01449;75,51319
0,4288;75,92081;-0,01417;75,92081
0,4311;76,32750;-0,01401;76,32750
0,4334;76,73337;-0,01385;76,73337
0,4356;77,13855;-0,01369;77,13855
0,4379;77,54280;-0,01354;77,54280
0,4401;77,94564;-0,01321;77,94564
0,4424;78,34686;-0,01305;78,34686
0,4448;78,77962;-0,01290;78,77962
0,4472;79,21075;-0,01274;79,21075
0,4497;79,64061;-0,01243;79,64061
0,4521;80,06929;-0,01227;80,06929
0,4546;80,49728;-0,01211;80,49728
0,4570;80,92434;-0,01180;80,92434
0,4594;81,35012;-0,01164;81,35012
0,4619;81,77427;-0,01148;81,77427
0,4643;82,19632;-0,01117;82,19632
0,4668;82,61628;-0,01101;82,61628
0,4692;83,03426;-0,01085;83,03426
0,4717;83,45061;-0,01069;83,45061
0,4741;83,86568;-0,01039;83,86568
0,4765;84,27947;-0,01023;84,27947
0,4790;84,69221;-0,01007;84,69221
0,4814;85,10355;-0,00977;85,10355
0,4839;85,51373;-0,00961;85,51373
0,4863;85,92240;-0,00946;85,92240
0,4887;86,32967;-0,00915;86,32967
0,4912;86,73589;-0,00900;86,73589
0,4936;87,14084;-0,00884;87,14084
0,4961;87,54473;-0,00869;87,54473
0,4985;87,94735;-0,00838;87,94735
0,5009;88,34880;-0,00823;88,34880
0,5034;88,74897;-0,00807;88,74897
0,5060;89,17824;-0,00777;89,17824
0,5086;89,60588;-0,00762;89,60588
0,5113;90,03142;-0,00732;90,03142
0,5139;90,45511;-0,00717;90,45511
0,5165;90,87704;-0,00701;90,87704
0,5191;91,29770;-0,00671;91,29770
0,5218;91,71719;-0,00656;91,71719
0,5244;92,13587;-0,00626;92,13587
0,5270;92,55396;-0,00611;92,55396
0,5297;92,97136;-0,00595;92,97136
0,5323;93,38783;-0,00566;93,38783
0,5349;93,80290;-0,00551;93,80290
0,5375;94,21657;-0,00520;94,21657
0,5402;94,62896;-0,00506;94,62896
0,5428;95,04042;-0,00491;95,04042
0,5454;95,45095;-0,00460;95,45095
0,5481;95,86078;-0,00446;95,86078
0,5507;96,26992;-0,00416;96,26992
0,5533;96,67835;-0,00401;96,67835
0,5559;97,08562;-0,00386;97,08562
0,5586;97,49196;-0,00357;97,49196
0,5612;97,89749;-0,00342;97,89749
0,5638;98,30231;-0,00312;98,30231
0,5665;98,70679;-0,00297;98,70679
0,5691;99,11103;-0,00282;99,11103
0,5717;99,51493;-0,00252;99,51493
0,5743;99,91778;-0,00237;99,91778
0,5770;100,31923;-0,00208;100,31923
0,5796;100,71928;-0,00193;100,71928
0,5824;101,14657;-0,00178;101,14657
0,5852;101,57270;-0,00148;101,57270
0,5881;101,99790;-0,00134;101,99790
0,5909;102,42274;-0,00105;102,42274
0,5937;102,84782;-0,00090;102,84782
0,5965;103,27244;-0,00060;103,27244
0,5993;103,69379;-0,00046;103,69379
0,6021;104,10874;-0,00016;104,10874
0,6049;104,51462;-0,00001;104,51462
0,6080;104,93702;0,00028;104,93702
0,6110;105,35011;0,00058;105,35011
0,6140;105,75575;0,00073;105,75575
0,6172;106,17978;0,00103;106,17978
0,6203;106,59660;0,00132;106,59660
0,6235;107,00655;0,00147;107,00655
0,6267;107,40939;0,00177;107,40939
0,6301;107,82900;0,00207;107,82900
0,6335;108,24268;0,00238;108,24268
0,6369;108,65227;0,00252;108,65227
0,6402;109,05966;0,00283;109,05966
0,6436;109,46728;0,00314;109,46728
0,6470;109,87746;0,00344;109,87746
0,6504;110,29265;0,00376;110,29265
0,6538;110,71505;0,00391;110,71505
0,6570;111,12186;0,00423;111,12186
0,6601;111,53704;0,00455;111,53704
0,6633;111,95863;0,00488;111,95863
0,6665;112,38359;0,00504;112,38359
0,6695;112,78539;0,00538;112,78539
0,6725;113,18789;0,00554;113,18789
0,6755;113,58957;0,00588;113,58957
0,6787;114,01396;0,00623;114,01396
0,6819;114,43566;0,00640;114,43566
0,6851;114,85352;0,00676;114,85352
0,6883;115,26650;0,00712;115,26650
0,6915;115,67365;0,00749;115,67365
0,6947;116,07638;0,00767;116,07638
0,6979;116,47783;0,00804;116,47783
0,7011;116,88266;0,00843;116,88266
0,7043;117,29633;0,00862;117,29633
0,7075;117,70907;0,00901;117,70907
0,7110;118,11716;0,00942;118,11716
0,7161;118,52594;0,01005;118,52594
0,9519;118,92600;0,15043;118,92600
1,2814;119,33140;0,65138;119,33140
1,2876;119,73809;0,65823;119,73809
1,2934;120,14909;0,66503;120,14909
1,2994;120,55845;0,67180;120,55845
1,3077;120,96049;0,68308;120,96049
1,3182;121,36380;0,69453;121,36380
1,3279;121,76991;0,70874;121,76991
1,3366;122,17345;0,71867;122,17345
1,3467;122,57421;0,73450;122,57421
1,3602;122,97996;0,75487;122,97996
1,3713;123,38339;0,77435;123,38339
1,3798;123,79241;0,78853;123,79241
1,3876;124,19735;0,80375;124,19735
1,3950;124,60556;0,82007;124,60556
1,4023;125,01201;0,83751;125,01201
1,4092;125,42068;0,85608;125,42068
1,4158;125,82655;0,87076;125,82655
1,4291;126,22812;0,90742;126,22812
1,5701;126,29028;1,50766;126,29028
1,6659;126,33032;2,10963;126,33032
1,7428;126,35360;2,72606;126,35360
1,8067;126,37152;3,32955;126,37152
1,8649;126,38258;3,93678;126,38258
1,9212;126,39457;4,55466;126,39457
1,9756;126,40539;5,15960;126,40539
2,0320;126,41331;5,77468;126,41331
2,0902;126,42239;6,38392;126,42239
2,1521;126,43181;6,99248;126,43181
2,1953;126,43565;7,38920;126,43565
2,1955;126,43577;7,38920;126,43577
