Part protocol
Network name;Part_OP10_MP-001_2020-08-26_10-24-56_0014_OK.csv
Protocol version;2.01.00

Index;Result information;Process values - curve related;Process values - EO related;Evaluation objects settings;Switch signal settings;Device information;Channel-X settings;Channel-Y settings;Cycle control settings;Evaluation settings;Trigger Y settings;Block settings;Measuring curve;Measuring points;Sequence;
Line;10;30;40;70;100;120;150;190;220;240;250;260;270;280;600;



Result information
Date;2020/08/26
Time;10:24:56
Cycle number;14
Total result;OK
Triggered switch signals
Part serial number;0014
Measuring program name;D57-Left
Measuring program number;1
Zero X offset;0,00;mm
Tara Y offset;0,0;kN









Process values - curve related
Block X;126,39;mm;XMIN-X;-0,17;mm
Block Y;7,5;kN;XMIN-Y;0,0;kN
Ref X;-;mm;XMAX-X;126,39;mm
Peak-peak X;126,57;mm;XMAX-Y;7,5;kN
Peak-peak Y;7,5;kN;YMIN-X;-0,17;mm
;;;YMIN-Y;0,0;kN
;;;YMAX-X;126,39;mm
;;;YMAX-Y;7,5;kN

Process values - EO related;Result;Entry;Exit;XMIN-X;XMIN-Y;XMAX-X;XMAX-Y;YMIN-Y;YMIN-X;YMAX-Y;YMAX-X
;;;;mm;kN;mm;kN;kN;mm;kN;mm
EO-01;OK;0,7;0,7;;;;;0,7;124,50;0,7;125,57;;;;;;
EO-02;OK;126,35;126,37;126,35;4,5;126,36;5,0;;;;;;;;;;
EO-03;None;
EO-04;None;
























Evaluation objects settings;Reaction;X reference;Y-Reference;XMin;XMax;YMin;YMax;Entry;Exit;Curve part;Catch zone X;Catch zone Y
EO-01;UNI-BOX;ABSOLUTE;-;124,50;125,70;0,5;3,0;LEFT;RIGHT;ANY;+50%;+50%
EO-02;UNI-BOX;ABSOLUTE;-;125,80;127,20;4,5;5,5;BELOW;ABOVE;ANY;+50%;+50%
EO-03;OFF
EO-04;OFF

























Switch signal settings;Channel;Threshold at;;Trigger from;Reference;Latch until
Type S1;OFF
Type S2;OFF

















Device information
Device type;maXYmos BL
Device type number;5867B1011
Device serial number;5182443
Firmware version;2.3.2 (r22473-BL_v2.3.x)
-
-
-
-
-
IP Address;10.0.0.18
Network name;OP10
Profibus address;10
-
-
-
Station name;OP10
Company name;
Comment;











Channel-X settings
Use the settings from global setup;True
Sensor-X type;Â±10V
Unit;mm
Used range from;0,00;mm
Used range to;200,00;mm
Decimal places;XXXX.XX
Scaling by;Teach-In
Point 1;0,00;mm;-0,350;%
Point 2;200,00;mm;10,000;%
Invert signal;FALSE
Filter;20 Hz
Test point;0,00;mm
Tolerance;2,00;mm
Enable sensor test by dig-input;FALSE
Zoom from;110,00;mm
Zoom to;133,11;mm























Channel-Y settings
Use the settings from global setup;True
Sensor-Y type;Strain Gage
Unit;kN
Used range from;0,0;kN
Used range to;20,0;kN
Decimal places;XXXXX.X
Scaling by;Teach-In
Point 1;0,0;kN;-0,01562;%
Point 2;20,0;kN;2,00000;%
Invert signal;FALSE
Filter;1 Hz
Piezo reset;-
Test point;0,0;kN
Tolerance;0,1;kN
Enable sensor test by dig-input;FALSE
Zoom from;0,0;kN
Zoom to;6,0;kN












Cycle control settings
Use the settings from global setup;True
Measuring function;Y (X)
Delta-X;Automatic
START condition;Dig-Input
STOP condition;Dig-Input
Cycle time out;20,00;s
Turning point RIGHT;YMAX
Turning point LEFT;NONE
Cut curve at;NONE










Evaluation settings
Capture only first NOK-EO for statistics;False
Hysteresis-X;0,0;%
Hysteresis-Y;100,0;%






Trigger Y settings
Threshold;1,9;kN
Value X at TRIGGER Y;0,00;mm
Approach from;BELOW






Block settings
Value X at block;XMAX
Block at;0,00;mm







Measuring curve
Number of measuring points;315
Ref. Graph on;ABSOLUTE
Curve segments;0;315;314;315;


Time;X(ABSOLUTE);Y;X (ABSOLUTE)


s;mm;kN;mm
0,0000;-0,17271;-0,03570;-0,17271
0,1002;0,23352;-0,03566;0,23352
0,1041;0,65045;-0,03566;0,65045
0,1069;1,07029;-0,03566;1,07029
0,1092;1,48222;-0,03565;1,48222
0,1112;1,91952;-0,03565;1,91952
0,1129;2,31957;-0,03565;2,31957
0,1146;2,75722;-0,03564;2,75722
0,1161;3,17753;-0,03564;3,17753
0,1176;3,62670;-0,03563;3,62670
0,1189;4,04329;-0,03563;4,04329
0,1202;4,48187;-0,03563;4,48187
0,1216;4,94198;-0,03562;4,94198
0,1227;5,35135;-0,03562;5,35135
0,1238;5,77119;-0,03562;5,77119
0,1249;6,19720;-0,03561;6,19720
0,1261;6,62414;-0,03561;6,62414
0,1272;7,04736;-0,03560;7,04736
0,1283;7,46289;-0,03560;7,46289
0,1294;7,86807;-0,03560;7,86807
0,1308;8,32551;-0,03559;8,32551
0,1321;8,76514;-0,03559;8,76514
0,1334;9,18602;-0,03558;9,18602
0,1347;9,58759;-0,03556;9,58759
0,1362;10,02338;-0,03555;10,02338
0,1377;10,43612;-0,03555;10,43612
0,1394;10,87726;-0,03553;10,87726
0,1411;11,30048;-0,03552;11,30048
0,1428;11,71229;-0,03550;11,71229
0,1445;12,11747;-0,03548;12,11747
0,1462;12,51915;-0,03546;12,51915
0,1478;12,91955;-0,03544;12,91955
0,1495;13,32124;-0,03541;13,32124
0,1512;13,72630;-0,03538;13,72630
0,1529;14,13601;-0,03535;14,13601
0,1546;14,55003;-0,03535;14,55003
0,1563;14,96778;-0,03533;14,96778
0,1580;15,38890;-0,03529;15,38890
0,1597;15,81352;-0,03526;15,81352
0,1614;16,24162;-0,03522;16,24162
0,1631;16,67275;-0,03519;16,67275
0,1647;17,10598;-0,03514;17,10598
0,1664;17,54072;-0,03510;17,54072
0,1681;17,97674;-0,03506;17,97674
0,1698;18,41451;-0,03501;18,41451
0,1715;18,85414;-0,03501;18,85414
0,1732;19,29528;-0,03496;19,29528
0,1749;19,73712;-0,03491;19,73712
0,1766;20,17954;-0,03485;20,17954
0,1783;20,62278;-0,03480;20,62278
0,1799;21,06765;-0,03473;21,06765
0,1816;21,51414;-0,03468;21,51414
0,1833;21,96204;-0,03461;21,96204
0,1850;22,41039;-0,03455;22,41039
0,1867;22,85875;-0,03448;22,85875
0,1884;23,30746;-0,03448;23,30746
0,1901;23,75687;-0,03441;23,75687
0,1916;24,15715;-0,03434;24,15715
0,1931;24,55791;-0,03425;24,55791
0,1946;24,95854;-0,03418;24,95854
0,1961;25,35895;-0,03410;25,35895
0,1978;25,80882;-0,03410;25,80882
0,1995;26,25869;-0,03401;26,25869
0,2010;26,65874;-0,03393;26,65874
0,2025;27,05880;-0,03385;27,05880
0,2042;27,50844;-0,03375;27,50844
0,2059;27,95691;-0,03366;27,95691
0,2075;28,40411;-0,03357;28,40411
0,2092;28,85014;-0,03347;28,85014
0,2109;29,29500;-0,03347;29,29500
0,2126;29,73871;-0,03336;29,73871
0,2143;30,18066;-0,03326;30,18066
0,2160;30,62053;-0,03316;30,62053
0,2177;31,05783;-0,03306;31,05783
0,2194;31,49268;-0,03295;31,49268
0,2211;31,92521;-0,03284;31,92521
0,2228;32,35530;-0,03273;32,35530
0,2244;32,78305;-0,03261;32,78305
0,2261;33,20848;-0,03249;33,20848
0,2278;33,63158;-0,03249;33,63158
0,2295;34,05247;-0,03237;34,05247
0,2312;34,47126;-0,03225;34,47126
0,2329;34,88796;-0,03213;34,88796
0,2346;35,30233;-0,03200;35,30233
0,2363;35,71438;-0,03187;35,71438
0,2380;36,12409;-0,03175;36,12409
0,2397;36,53160;-0,03161;36,53160
0,2413;36,93677;-0,03149;36,93677
0,2430;37,33974;-0,03136;37,33974
0,2447;37,74049;-0,03136;37,74049
0,2466;38,18349;-0,03122;38,18349
0,2485;38,62394;-0,03108;38,62394
0,2504;39,06205;-0,03094;39,06205
0,2522;39,49796;-0,03080;39,49796
0,2541;39,93188;-0,03066;39,93188
0,2560;40,36418;-0,03052;40,36418
0,2579;40,79496;-0,03037;40,79496
0,2597;41,22411;-0,03023;41,22411
0,2616;41,65164;-0,03009;41,65164
0,2635;42,07730;-0,02994;42,07730
0,2654;42,50110;-0,02978;42,50110
0,2672;42,92315;-0,02963;42,92315
0,2691;43,34346;-0,02949;43,34346
0,2710;43,76225;-0,02933;43,76225
0,2729;44,17965;-0,02918;44,17965
0,2748;44,59553;-0,02902;44,59553
0,2766;45,01025;-0,02887;45,01025
0,2785;45,42381;-0,02871;45,42381
0,2804;45,83609;-0,02855;45,83609
0,2823;46,24708;-0,02839;46,24708
0,2841;46,65668;-0,02824;46,65668
0,2860;47,06488;-0,02808;47,06488
0,2879;47,47180;-0,02791;47,47180
0,2898;47,87756;-0,02775;47,87756
0,2917;48,28215;-0,02759;48,28215
0,2935;48,68593;-0,02742;48,68593
0,2954;49,08890;-0,02726;49,08890
0,2973;49,49105;-0,02710;49,49105
0,2992;49,89238;-0,02693;49,89238
0,3010;50,29290;-0,02676;50,29290
0,3031;50,73230;-0,02643;50,73230
0,3052;51,17053;-0,02626;51,17053
0,3072;51,60748;-0,02610;51,60748
0,3093;52,04339;-0,02593;52,04339
0,3114;52,47824;-0,02576;52,47824
0,3134;52,91182;-0,02559;52,91182
0,3155;53,34411;-0,02542;53,34411
0,3176;53,77478;-0,02526;53,77478
0,3196;54,20393;-0,02508;54,20393
0,3217;54,63146;-0,02491;54,63146
0,3238;55,05747;-0,02457;55,05747
0,3258;55,48208;-0,02440;55,48208
0,3279;55,90518;-0,02423;55,90518
0,3300;56,32677;-0,02406;56,32677
0,3320;56,74685;-0,02389;56,74685
0,3341;57,16529;-0,02372;57,16529
0,3361;57,58222;-0,02354;57,58222
0,3382;57,99787;-0,02337;57,99787
0,3403;58,41224;-0,02320;58,41224
0,3423;58,82545;-0,02302;58,82545
0,3444;59,23738;-0,02268;59,23738
0,3465;59,64791;-0,02251;59,64791
0,3485;60,05692;-0,02234;60,05692
0,3506;60,46443;-0,02216;60,46443
0,3527;60,87030;-0,02200;60,87030
0,3547;61,27466;-0,02182;61,27466
0,3568;61,67774;-0,02165;61,67774
0,3589;62,07954;-0,02148;62,07954
0,3609;62,48006;-0,02130;62,48006
0,3632;62,91550;-0,02096;62,91550
0,3654;63,34978;-0,02079;63,34978
0,3677;63,78289;-0,02062;63,78289
0,3699;64,21507;-0,02045;64,21507
0,3722;64,64597;-0,02028;64,64597
0,3744;65,07582;-0,01993;65,07582
0,3767;65,50427;-0,01977;65,50427
0,3790;65,93133;-0,01959;65,93133
0,3812;66,35711;-0,01942;66,35711
0,3835;66,78161;-0,01925;66,78161
0,3857;67,20494;-0,01891;67,20494
0,3880;67,62711;-0,01874;67,62711
0,3902;68,04811;-0,01857;68,04811
0,3925;68,46796;-0,01841;68,46796
0,3947;68,88675;-0,01824;68,88675
0,3970;69,30461;-0,01790;69,30461
0,3992;69,72166;-0,01773;69,72166
0,4015;70,13766;-0,01756;70,13766
0,4037;70,55296;-0,01740;70,55296
0,4060;70,96780;-0,01723;70,96780
0,4082;71,38217;-0,01690;71,38217
0,4105;71,79584;-0,01673;71,79584
0,4127;72,20847;-0,01656;72,20847
0,4150;72,62005;-0,01640;72,62005
0,4173;73,03057;-0,01623;73,03057
0,4195;73,44041;-0,01590;73,44041
0,4218;73,84989;-0,01573;73,84989
0,4240;74,25891;-0,01556;74,25891
0,4263;74,66757;-0,01541;74,66757
0,4285;75,07566;-0,01524;75,07566
0,4308;75,48305;-0,01491;75,48305
0,4330;75,88973;-0,01475;75,88973
0,4353;76,29549;-0,01458;76,29549
0,4375;76,70009;-0,01442;76,70009
0,4398;77,10352;-0,01426;77,10352
0,4420;77,50566;-0,01393;77,50566
0,4443;77,90677;-0,01377;77,90677
0,4467;78,33999;-0,01361;78,33999
0,4492;78,77217;-0,01344;78,77217
0,4516;79,20342;-0,01313;79,20342
0,4541;79,63374;-0,01296;79,63374
0,4565;80,06324;-0,01280;80,06324
0,4589;80,49170;-0,01248;80,49170
0,4614;80,91864;-0,01232;80,91864
0,4638;81,34407;-0,01217;81,34407
0,4663;81,76752;-0,01200;81,76752
0,4687;82,18934;-0,01168;82,18934
0,4711;82,60941;-0,01153;82,60941
0,4736;83,02762;-0,01137;83,02762
0,4760;83,44386;-0,01106;83,44386
0,4785;83,85823;-0,01090;83,85823
0,4809;84,27062;-0,01073;84,27062
0,4833;84,68127;-0,01043;84,68127
0,4858;85,09063;-0,01027;85,09063
0,4882;85,49883;-0,01011;85,49883
0,4907;85,90622;-0,00995;85,90622
0,4931;86,31279;-0,00964;86,31279
0,4955;86,71843;-0,00948;86,71843
0,4980;87,12268;-0,00932;87,12268
0,5004;87,52529;-0,00902;87,52529
0,5029;87,92628;-0,00886;87,92628
0,5055;88,35613;-0,00870;88,35613
0,5081;88,78412;-0,00840;88,78412
0,5107;89,21036;-0,00824;89,21036
0,5134;89,63486;-0,00794;89,63486
0,5160;90,05796;-0,00778;90,05796
0,5186;90,47943;-0,00763;90,47943
0,5213;90,89927;-0,00732;90,89927
0,5239;91,31760;-0,00717;91,31760
0,5265;91,73453;-0,00686;91,73453
0,5291;92,15042;-0,00670;92,15042
0,5318;92,56572;-0,00656;92,56572
0,5344;92,98032;-0,00625;92,98032
0,5370;93,39446;-0,00610;93,39446
0,5397;93,80779;-0,00580;93,80779
0,5423;94,22018;-0,00564;94,22018
0,5449;94,63175;-0,00549;94,63175
0,5475;95,04228;-0,00520;95,04228
0,5502;95,45177;-0,00504;95,45177
0,5528;95,86032;-0,00474;95,86032
0,5554;96,26782;-0,00458;96,26782
0,5581;96,67451;-0,00444;96,67451
0,5607;97,08038;-0,00414;97,08038
0,5633;97,48568;-0,00399;97,48568
0,5659;97,89004;-0,00369;97,89004
0,5686;98,29358;-0,00354;98,29358
0,5712;98,69597;-0,00339;98,69597
0,5738;99,09718;-0,00309;99,09718
0,5766;99,52564;-0,00295;99,52564
0,5795;99,95258;-0,00265;99,95258
0,5823;100,37801;-0,00250;100,37801
0,5851;100,80227;-0,00221;100,80227
0,5879;101,22561;-0,00206;101,22561
0,5907;101,64836;-0,00176;101,64836
0,5935;102,07041;-0,00161;102,07041
0,5964;102,49223;-0,00132;102,49223
0,5992;102,91428;-0,00117;102,91428
0,6020;103,33657;-0,00087;103,33657
0,6048;103,75699;-0,00072;103,75699
0,6076;104,17334;-0,00044;104,17334
0,6104;104,58411;-0,00029;104,58411
0,6133;104,98940;0,00001;104,98940
0,6161;105,39038;0,00015;105,39038
0,6191;105,81570;0,00044;105,81570
0,6221;106,23938;0,00059;106,23938
0,6251;106,66213;0,00089;106,66213
0,6281;107,08407;0,00118;107,08407
0,6311;107,50589;0,00132;107,50589
0,6341;107,92759;0,00162;107,92759
0,6371;108,34883;0,00177;108,34883
0,6401;108,76972;0,00206;108,76972
0,6431;109,19084;0,00236;109,19084
0,6461;109,61266;0,00251;109,61266
0,6491;110,03541;0,00280;110,03541
0,6521;110,45933;0,00295;110,45933
0,6551;110,88406;0,00325;110,88406
0,6581;111,30949;0,00354;111,30949
0,6611;111,73491;0,00370;111,73491
0,6641;112,16034;0,00400;112,16034
0,6671;112,58612;0,00415;112,58612
0,6701;113,01260;0,00445;113,01260
0,6731;113,43919;0,00476;113,43919
0,6761;113,86241;0,00491;113,86241
0,6792;114,27736;0,00522;114,27736
0,6822;114,68079;0,00538;114,68079
0,6853;115,09458;0,00568;115,09458
0,6887;115,51558;0,00600;115,51558
0,6921;115,92064;0,00631;115,92064
0,6957;116,33373;0,00663;116,33373
0,6992;116,73647;0,00695;116,73647
0,7030;117,15444;0,00727;117,15444
0,7067;117,57347;0,00760;117,57347
0,7105;117,98877;0,00793;117,98877
0,7148;118,39977;0,00826;118,39977
0,7221;118,80494;0,00896;118,80494
1,2643;119,09105;0,60928;119,09105
1,2895;119,49436;0,63967;119,49436
1,2938;119,90140;0,64417;119,90140
1,2976;120,30529;0,64862;120,30529
1,3013;120,70733;0,65303;120,70733
1,3055;121,12193;0,65739;121,12193
1,3101;121,52315;0,66386;121,52315
1,3171;121,92821;0,67236;121,92821
1,3269;122,32896;0,68285;122,32896
1,3351;122,74019;0,69119;122,74019
1,3409;123,15037;0,69743;123,15037
1,3462;123,55543;0,70370;123,55543
1,3515;123,95630;0,71000;123,95630
1,3569;124,36590;0,71635;124,36590
1,3627;124,76909;0,72278;124,76909
1,3691;125,17101;0,72927;125,17101
1,3757;125,57467;0,73809;125,57467
1,3837;125,97566;0,74710;125,97566
1,5891;126,26420;1,35380;126,26420
1,6755;126,29598;1,96787;126,29598
1,7412;126,31262;2,57288;126,31262
1,7994;126,32927;3,18420;126,32927
1,8538;126,33893;3,79639;126,33893
1,9064;126,35022;4,40323;126,35022
1,9590;126,36186;5,00789;126,36186
2,0134;126,36814;5,61729;126,36814
2,0697;126,37885;6,21850;126,37885
2,1298;126,38549;6,81912;126,38549
2,1955;126,39236;7,42377;126,39236
2,2029;126,39375;7,47301;126,39375
2,2030;126,39375;7,48934;126,39375
