Part protocol
Network name;Part_OP10_MP-001_2020-08-26_15-45-23_0029_OK.csv
Protocol version;2.01.00

Index;Result information;Process values - curve related;Process values - EO related;Evaluation objects settings;Switch signal settings;Device information;Channel-X settings;Channel-Y settings;Cycle control settings;Evaluation settings;Trigger Y settings;Block settings;Measuring curve;Measuring points;Sequence;
Line;10;30;40;70;100;120;150;190;220;240;250;260;270;280;600;



Result information
Date;2020/08/26
Time;15:45:23
Cycle number;29
Total result;OK
Triggered switch signals
Part serial number;0029
Measuring program name;D57-Left
Measuring program number;1
Zero X offset;0,00;mm
Tara Y offset;0,0;kN









Process values - curve related
Block X;126,31;mm;XMIN-X;-0,19;mm
Block Y;7,3;kN;XMIN-Y;0,0;kN
Ref X;-;mm;XMAX-X;126,31;mm
Peak-peak X;126,50;mm;XMAX-Y;7,3;kN
Peak-peak Y;7,5;kN;YMIN-X;0,22;mm
;;;YMIN-Y;0,0;kN
;;;YMAX-X;126,31;mm
;;;YMAX-Y;7,5;kN

Process values - EO related;Result;Entry;Exit;XMIN-X;XMIN-Y;XMAX-X;XMAX-Y;YMIN-Y;YMIN-X;YMAX-Y;YMAX-X
;;;;mm;kN;mm;kN;kN;mm;kN;mm
EO-01;OK;0,7;0,7;;;;;0,7;124,50;0,7;125,52;;;;;;
EO-02;OK;126,26;126,28;126,26;4,5;126,27;5,0;;;;;;;;;;
EO-03;None;
EO-04;None;
























Evaluation objects settings;Reaction;X reference;Y-Reference;XMin;XMax;YMin;YMax;Entry;Exit;Curve part;Catch zone X;Catch zone Y
EO-01;UNI-BOX;ABSOLUTE;-;124,50;125,70;0,5;3,0;LEFT;RIGHT;ANY;+50%;+50%
EO-02;UNI-BOX;ABSOLUTE;-;125,80;127,20;4,5;5,5;BELOW;ABOVE;ANY;+50%;+50%
EO-03;OFF
EO-04;OFF

























Switch signal settings;Channel;Threshold at;;Trigger from;Reference;Latch until
Type S1;OFF
Type S2;OFF

















Device information
Device type;maXYmos BL
Device type number;5867B1011
Device serial number;5182443
Firmware version;2.3.2 (r22473-BL_v2.3.x)
-
-
-
-
-
IP Address;10.0.0.18
Network name;OP10
Profibus address;10
-
-
-
Station name;OP10
Company name;
Comment;











Channel-X settings
Use the settings from global setup;True
Sensor-X type;Â±10V
Unit;mm
Used range from;0,00;mm
Used range to;200,00;mm
Decimal places;XXXX.XX
Scaling by;Teach-In
Point 1;0,00;mm;-0,350;%
Point 2;200,00;mm;10,000;%
Invert signal;FALSE
Filter;20 Hz
Test point;0,00;mm
Tolerance;2,00;mm
Enable sensor test by dig-input;FALSE
Zoom from;110,00;mm
Zoom to;133,11;mm























Channel-Y settings
Use the settings from global setup;True
Sensor-Y type;Strain Gage
Unit;kN
Used range from;0,0;kN
Used range to;20,0;kN
Decimal places;XXXXX.X
Scaling by;Teach-In
Point 1;0,0;kN;-0,01562;%
Point 2;20,0;kN;2,00000;%
Invert signal;FALSE
Filter;1 Hz
Piezo reset;-
Test point;0,0;kN
Tolerance;0,1;kN
Enable sensor test by dig-input;FALSE
Zoom from;0,0;kN
Zoom to;6,0;kN












Cycle control settings
Use the settings from global setup;True
Measuring function;Y (X)
Delta-X;Automatic
START condition;Dig-Input
STOP condition;Dig-Input
Cycle time out;20,00;s
Turning point RIGHT;YMAX
Turning point LEFT;NONE
Cut curve at;NONE










Evaluation settings
Capture only first NOK-EO for statistics;False
Hysteresis-X;0,0;%
Hysteresis-Y;100,0;%






Trigger Y settings
Threshold;1,9;kN
Value X at TRIGGER Y;0,00;mm
Approach from;BELOW






Block settings
Value X at block;XMAX
Block at;0,00;mm







Measuring curve
Number of measuring points;317
Ref. Graph on;ABSOLUTE
Curve segments;0;317;316;317;


Time;X(ABSOLUTE);Y;X (ABSOLUTE)


s;mm;kN;mm
0,0000;-0,18935;-0,03447;-0,18935
0,0969;0,21780;-0,03453;0,21780
0,1009;0,62880;-0,03453;0,62880
0,1037;1,03933;-0,03453;1,03933
0,1059;1,44078;-0,03453;1,44078
0,1080;1,86633;-0,03453;1,86633
0,1099;2,30083;-0,03453;2,30083
0,1116;2,73045;-0,03453;2,73045
0,1131;3,14284;-0,03453;3,14284
0,1146;3,58352;-0,03452;3,58352
0,1159;3,99207;-0,03452;3,99207
0,1172;4,42216;-0,03452;4,42216
0,1185;4,87342;-0,03452;4,87342
0,1196;5,27546;-0,03451;5,27546
0,1208;5,68866;-0,03451;5,68866
0,1219;6,10886;-0,03451;6,10886
0,1230;6,53126;-0,03451;6,53126
0,1241;6,95110;-0,03450;6,95110
0,1253;7,36407;-0,03449;7,36407
0,1264;7,76692;-0,03449;7,76692
0,1277;8,22145;-0,03449;8,22145
0,1290;8,65793;-0,03448;8,65793
0,1303;9,07626;-0,03448;9,07626
0,1317;9,47690;-0,03448;9,47690
0,1332;9,91362;-0,03446;9,91362
0,1347;10,32915;-0,03445;10,32915
0,1363;10,77437;-0,03444;10,77437
0,1380;11,20085;-0,03444;11,20085
0,1397;11,61522;-0,03442;11,61522
0,1414;12,02295;-0,03440;12,02295
0,1431;12,42766;-0,03438;12,42766
0,1448;12,83121;-0,03436;12,83121
0,1465;13,23534;-0,03435;13,23534
0,1482;13,64203;-0,03432;13,64203
0,1499;14,05325;-0,03429;14,05325
0,1516;14,46937;-0,03427;14,46937
0,1532;14,89014;-0,03423;14,89014
0,1549;15,31441;-0,03423;15,31441
0,1566;15,74193;-0,03421;15,74193
0,1583;16,17260;-0,03417;16,17260
0,1600;16,60629;-0,03414;16,60629
0,1617;17,04266;-0,03410;17,04266
0,1634;17,48089;-0,03406;17,48089
0,1651;17,92075;-0,03402;17,92075
0,1668;18,36213;-0,03398;18,36213
0,1685;18,80548;-0,03393;18,80548
0,1701;19,25058;-0,03388;19,25058
0,1718;19,69708;-0,03388;19,69708
0,1735;20,14427;-0,03383;20,14427
0,1752;20,59228;-0,03378;20,59228
0,1769;21,04146;-0,03373;21,04146
0,1784;21,44221;-0,03367;21,44221
0,1799;21,84413;-0,03360;21,84413
0,1814;22,24674;-0,03354;22,24674
0,1829;22,64970;-0,03354;22,64970
0,1844;23,05255;-0,03348;23,05255
0,1859;23,45528;-0,03341;23,45528
0,1874;23,85836;-0,03335;23,85836
0,1889;24,26191;-0,03327;24,26191
0,1904;24,66581;-0,03327;24,66581
0,1919;25,06970;-0,03320;25,06970
0,1934;25,47301;-0,03311;25,47301
0,1949;25,87598;-0,03304;25,87598
0,1964;26,27859;-0,03296;26,27859
0,1979;26,68121;-0,03296;26,68121
0,1994;27,08406;-0,03287;27,08406
0,2009;27,48679;-0,03279;27,48679
0,2024;27,88882;-0,03270;27,88882
0,2039;28,28981;-0,03261;28,28981
0,2056;28,73921;-0,03261;28,73921
0,2073;29,18699;-0,03251;29,18699
0,2090;29,63337;-0,03242;29,63337
0,2107;30,07800;-0,03232;30,07800
0,2124;30,52042;-0,03222;30,52042
0,2141;30,96040;-0,03211;30,96040
0,2158;31,39759;-0,03201;31,39759
0,2175;31,83221;-0,03190;31,83221
0,2191;32,26462;-0,03180;32,26462
0,2208;32,69482;-0,03169;32,69482
0,2225;33,12281;-0,03169;33,12281
0,2242;33,54824;-0,03157;33,54824
0,2259;33,97134;-0,03146;33,97134
0,2276;34,39212;-0,03134;34,39212
0,2293;34,81068;-0,03123;34,81068
0,2310;35,22714;-0,03110;35,22714
0,2327;35,64140;-0,03098;35,64140
0,2343;36,05344;-0,03086;36,05344
0,2360;36,46327;-0,03073;36,46327
0,2377;36,87089;-0,03060;36,87089
0,2394;37,27642;-0,03060;37,27642
0,2411;37,67985;-0,03047;37,67985
0,2428;38,08130;-0,03034;38,08130
0,2447;38,52523;-0,03021;38,52523
0,2466;38,96684;-0,03007;38,96684
0,2484;39,40624;-0,02994;39,40624
0,2503;39,84377;-0,02980;39,84377
0,2522;40,27956;-0,02966;40,27956
0,2541;40,71383;-0,02952;40,71383
0,2559;41,14648;-0,02937;41,14648
0,2578;41,57749;-0,02924;41,57749
0,2597;42,00641;-0,02909;42,00641
0,2616;42,43324;-0,02895;42,43324
0,2634;42,85785;-0,02880;42,85785
0,2653;43,28026;-0,02865;43,28026
0,2672;43,70068;-0,02850;43,70068
0,2691;44,11912;-0,02836;44,11912
0,2710;44,53571;-0,02820;44,53571
0,2728;44,95066;-0,02805;44,95066
0,2747;45,36422;-0,02790;45,36422
0,2766;45,77637;-0,02775;45,77637
0,2785;46,18725;-0,02759;46,18725
0,2803;46,59685;-0,02744;46,59685
0,2822;47,00494;-0,02728;47,00494
0,2841;47,41151;-0,02713;47,41151
0,2860;47,81634;-0,02697;47,81634
0,2879;48,21953;-0,02680;48,21953
0,2897;48,62145;-0,02664;48,62145
0,2916;49,02220;-0,02649;49,02220
0,2935;49,42237;-0,02633;49,42237
0,2956;49,86177;-0,02616;49,86177
0,2976;50,30035;-0,02601;50,30035
0,2997;50,73788;-0,02568;50,73788
0,3017;51,17402;-0,02551;51,17402
0,3038;51,60853;-0,02535;51,60853
0,3059;52,04152;-0,02519;52,04152
0,3079;52,47324;-0,02502;52,47324
0,3100;52,90390;-0,02486;52,90390
0,3121;53,33352;-0,02469;53,33352
0,3141;53,76233;-0,02452;53,76233
0,3162;54,19043;-0,02436;54,19043
0,3183;54,61749;-0,02419;54,61749
0,3203;55,04338;-0,02386;55,04338
0,3224;55,46811;-0,02369;55,46811
0,3245;55,89168;-0,02352;55,89168
0,3265;56,31420;-0,02336;56,31420
0,3286;56,73567;-0,02319;56,73567
0,3307;57,15621;-0,02302;57,15621
0,3327;57,57605;-0,02286;57,57605
0,3348;57,99508;-0,02268;57,99508
0,3369;58,41317;-0,02252;58,41317
0,3389;58,82999;-0,02235;58,82999
0,3410;59,24518;-0,02202;59,24518
0,3430;59,65873;-0,02184;59,65873
0,3451;60,07054;-0,02167;60,07054
0,3472;60,48084;-0,02151;60,48084
0,3492;60,89009;-0,02134;60,89009
0,3513;61,29841;-0,02116;61,29841
0,3534;61,70614;-0,02100;61,70614
0,3554;62,11283;-0,02083;62,11283
0,3575;62,51812;-0,02066;62,51812
0,3596;62,92179;-0,02050;62,92179
0,3616;63,32370;-0,02015;63,32370
0,3637;63,72376;-0,01999;63,72376
0,3660;64,15861;-0,01982;64,15861
0,3682;64,59196;-0,01965;64,59196
0,3705;65,02425;-0,01949;65,02425
0,3727;65,45562;-0,01931;65,45562
0,3750;65,88582;-0,01898;65,88582
0,3772;66,31451;-0,01881;66,31451
0,3795;66,74156;-0,01865;66,74156
0,3817;67,16723;-0,01848;67,16723
0,3840;67,59161;-0,01831;67,59161
0,3862;68,01529;-0,01798;68,01529
0,3885;68,43816;-0,01781;68,43816
0,3907;68,86033;-0,01765;68,86033
0,3930;69,28191;-0,01748;69,28191
0,3952;69,70257;-0,01731;69,70257
0,3975;70,12218;-0,01698;70,12218
0,3997;70,54062;-0,01682;70,54062
0,4020;70,95779;-0,01666;70,95779
0,4043;71,37367;-0,01649;71,37367
0,4065;71,78839;-0,01632;71,78839
0,4088;72,20207;-0,01600;72,20207
0,4110;72,61516;-0,01583;72,61516
0,4133;73,02801;-0,01567;73,02801
0,4155;73,44076;-0,01551;73,44076
0,4178;73,85315;-0,01534;73,85315
0,4200;74,26496;-0,01502;74,26496
0,4223;74,67560;-0,01485;74,67560
0,4245;75,08509;-0,01469;75,08509
0,4268;75,49317;-0,01453;75,49317
0,4290;75,90021;-0,01437;75,90021
0,4313;76,30643;-0,01405;76,30643
0,4335;76,71184;-0,01389;76,71184
0,4358;77,11667;-0,01372;77,11667
0,4380;77,52045;-0,01356;77,52045
0,4403;77,92271;-0,01341;77,92271
0,4426;78,32347;-0,01308;78,32347
0,4450;78,75599;-0,01293;78,75599
0,4474;79,18689;-0,01277;79,18689
0,4499;79,61709;-0,01244;79,61709
0,4523;80,04671;-0,01229;80,04671
0,4548;80,47610;-0,01213;80,47610
0,4572;80,90467;-0,01197;80,90467
0,4596;81,33184;-0,01166;81,33184
0,4621;81,75716;-0,01150;81,75716
0,4645;82,18037;-0,01134;82,18037
0,4670;82,60150;-0,01103;82,60150
0,4694;83,02087;-0,01087;83,02087
0,4718;83,43873;-0,01071;83,43873
0,4743;83,85485;-0,01040;83,85485
0,4767;84,26922;-0,01024;84,26922
0,4792;84,68161;-0,01008;84,68161
0,4816;85,09203;-0,00994;85,09203
0,4840;85,50046;-0,00962;85,50046
0,4865;85,90680;-0,00946;85,90680
0,4889;86,31163;-0,00931;86,31163
0,4914;86,71494;-0,00900;86,71494
0,4938;87,11698;-0,00885;87,11698
0,4962;87,51808;-0,00869;87,51808
0,4987;87,91813;-0,00839;87,91813
0,5013;88,34728;-0,00823;88,34728
0,5039;88,77446;-0,00808;88,77446
0,5066;89,19907;-0,00778;89,19907
0,5092;89,62147;-0,00762;89,62147
0,5118;90,04178;-0,00732;90,04178
0,5145;90,46046;-0,00717;90,46046
0,5171;90,87786;-0,00702;90,87786
0,5197;91,29432;-0,00671;91,29432
0,5223;91,70986;-0,00657;91,70986
0,5250;92,12481;-0,00626;92,12481
0,5276;92,53930;-0,00611;92,53930
0,5302;92,95332;-0,00596;92,95332
0,5329;93,36664;-0,00566;93,36664
0,5355;93,77927;-0,00551;93,77927
0,5381;94,19131;-0,00521;94,19131
0,5407;94,60277;-0,00507;94,60277
0,5434;95,01377;-0,00491;95,01377
0,5460;95,42406;-0,00461;95,42406
0,5486;95,83366;-0,00446;95,83366
0,5513;96,24256;-0,00417;96,24256
0,5539;96,65053;-0,00402;96,65053
0,5565;97,05769;-0,00387;97,05769
0,5591;97,46438;-0,00358;97,46438
0,5618;97,87095;-0,00343;97,87095
0,5644;98,27729;-0,00313;98,27729
0,5670;98,68363;-0,00298;98,68363
0,5697;99,08997;-0,00284;99,08997
0,5723;99,49584;-0,00254;99,49584
0,5749;99,90113;-0,00239;99,90113
0,5775;100,30561;-0,00209;100,30561
0,5802;100,70892;-0,00195;100,70892
0,5828;101,11119;-0,00180;101,11119
0,5854;101,51229;-0,00151;101,51229
0,5881;101,91235;-0,00136;101,91235
0,5909;102,33987;-0,00107;102,33987
0,5937;102,76635;-0,00092;102,76635
0,5965;103,19061;-0,00062;103,19061
0,5993;103,60999;-0,00047;103,60999
0,6021;104,02156;-0,00019;104,02156
0,6049;104,42360;-0,00004;104,42360
0,6080;104,84239;0,00026;104,84239
0,6110;105,25187;0,00040;105,25187
0,6140;105,65239;0,00070;105,65239
0,6172;106,06781;0,00099;106,06781
0,6203;106,47322;0,00114;106,47322
0,6237;106,89341;0,00143;106,89341
0,6271;107,30638;0,00173;107,30638
0,6305;107,71470;0,00203;107,71470
0,6339;108,12046;0,00233;108,12046
0,6372;108,52552;0,00248;108,52552
0,6406;108,93128;0,00278;108,93128
0,6440;109,33948;0,00309;109,33948
0,6474;109,75152;0,00340;109,75152
0,6508;110,16904;0,00371;110,16904
0,6539;110,56990;0,00387;110,56990
0,6571;110,97729;0,00418;110,97729
0,6603;111,38968;0,00451;111,38968
0,6635;111,80475;0,00467;111,80475
0,6667;112,22052;0,00500;112,22052
0,6699;112,63582;0,00533;112,63582
0,6731;113,05043;0,00550;113,05043
0,6763;113,46456;0,00584;113,46456
0,6795;113,87882;0,00619;113,87882
0,6827;114,29342;0,00654;114,29342
0,6859;114,70838;0,00672;114,70838
0,6891;115,12263;0,00708;115,12263
0,6922;115,53502;0,00745;115,53502
0,6954;115,94509;0,00763;115,94509
0,6986;116,35410;0,00801;116,35410
0,7018;116,76545;0,00840;116,76545
0,7050;117,18343;0,00861;117,18343
0,7082;117,60618;0,00900;117,60618
0,7116;118,02381;0,00941;118,02381
0,7157;118,42573;0,00984;118,42573
0,7242;118,82846;0,01094;118,82846
1,2553;119,00992;0,61317;119,00992
1,2838;119,41381;0,64853;119,41381
1,2881;119,83191;0,65303;119,83191
1,2917;120,23359;0,65751;120,23359
1,2953;120,64214;0,66193;120,64214
1,2990;121,05512;0,66631;121,05512
1,3032;121,46029;0,67065;121,46029
1,3088;121,87071;0,67709;121,87071
1,3193;122,27146;0,68978;122,27146
1,3291;122,67256;0,70024;122,67256
1,3349;123,08356;0,70650;123,08356
1,3394;123,48524;0,71069;123,48524
1,3437;123,88855;0,71697;123,88855
1,3480;124,29105;0,72117;124,29105
1,3525;124,70449;0,72540;124,70449
1,3572;125,10757;0,73176;125,10757
1,3627;125,51962;0,73818;125,51962
1,3706;125,92491;0,74682;125,92491
1,5876;126,17225;1,34872;126,17225
1,6739;126,20577;1,95650;126,20577
1,7397;126,22498;2,56932;126,22498
1,7960;126,24011;3,17446;126,24011
1,8485;126,25256;3,78071;126,25256
1,8992;126,26176;4,38144;126,26176
1,9518;126,27270;5,00179;126,27270
2,0044;126,28015;5,60423;126,28015
2,0607;126,29028;6,21792;126,29028
2,1208;126,29877;6,82850;126,29877
2,1722;126,30622;7,30627;126,30622
2,1865;126,30599;7,44126;126,30599
2,1902;126,30599;7,47455;126,30599
