Part protocol
Network name;Part_OP10_MP-001_2020-08-25_14-24-16_0003_OK.csv
Protocol version;2.01.00

Index;Result information;Process values - curve related;Process values - EO related;Evaluation objects settings;Switch signal settings;Device information;Channel-X settings;Channel-Y settings;Cycle control settings;Evaluation settings;Trigger Y settings;Block settings;Measuring curve;Measuring points;Sequence;
Line;10;30;40;70;100;120;150;190;220;240;250;260;270;280;600;



Result information
Date;2020/08/25
Time;14:24:16
Cycle number;3
Total result;OK
Triggered switch signals
Part serial number;0003
Measuring program name;D57-Left
Measuring program number;1
Zero X offset;0,00;mm
Tara Y offset;0,0;kN









Process values - curve related
Block X;126,44;mm;XMIN-X;-0,10;mm
Block Y;7,4;kN;XMIN-Y;0,0;kN
Ref X;-;mm;XMAX-X;126,44;mm
Peak-peak X;126,55;mm;XMAX-Y;7,4;kN
Peak-peak Y;7,5;kN;YMIN-X;0,31;mm
;;;YMIN-Y;0,0;kN
;;;YMAX-X;126,44;mm
;;;YMAX-Y;7,4;kN

Process values - EO related;Result;Entry;Exit;XMIN-X;XMIN-Y;XMAX-X;XMAX-Y;YMIN-Y;YMIN-X;YMAX-Y;YMAX-X
;;;;mm;kN;mm;kN;kN;mm;kN;mm
EO-01;OK;0,7;0,7;;;;;0,7;124,50;0,7;125,64;;;;;;
EO-02;OK;126,40;126,42;126,40;4,5;126,41;5,0;;;;;;;;;;
EO-03;None;
EO-04;None;
























Evaluation objects settings;Reaction;X reference;Y-Reference;XMin;XMax;YMin;YMax;Entry;Exit;Curve part;Catch zone X;Catch zone Y
EO-01;UNI-BOX;ABSOLUTE;-;124,50;125,70;0,5;3,0;LEFT;RIGHT;ANY;+50%;+50%
EO-02;UNI-BOX;ABSOLUTE;-;125,80;127,20;4,5;5,5;BELOW;ABOVE;ANY;+50%;+50%
EO-03;OFF
EO-04;OFF

























Switch signal settings;Channel;Threshold at;;Trigger from;Reference;Latch until
Type S1;OFF
Type S2;OFF

















Device information
Device type;maXYmos BL
Device type number;5867B1011
Device serial number;5182443
Firmware version;2.3.2 (r22473-BL_v2.3.x)
-
-
-
-
-
IP Address;10.0.0.18
Network name;OP10
Profibus address;10
-
-
-
Station name;OP10
Company name;
Comment;











Channel-X settings
Use the settings from global setup;True
Sensor-X type;Â±10V
Unit;mm
Used range from;0,00;mm
Used range to;200,00;mm
Decimal places;XXXX.XX
Scaling by;Teach-In
Point 1;0,00;mm;-0,350;%
Point 2;200,00;mm;10,000;%
Invert signal;FALSE
Filter;20 Hz
Test point;0,00;mm
Tolerance;2,00;mm
Enable sensor test by dig-input;FALSE
Zoom from;110,00;mm
Zoom to;133,11;mm























Channel-Y settings
Use the settings from global setup;True
Sensor-Y type;Strain Gage
Unit;kN
Used range from;0,0;kN
Used range to;20,0;kN
Decimal places;XXXXX.X
Scaling by;Teach-In
Point 1;0,0;kN;-0,01562;%
Point 2;20,0;kN;2,00000;%
Invert signal;FALSE
Filter;1 Hz
Piezo reset;-
Test point;0,0;kN
Tolerance;0,1;kN
Enable sensor test by dig-input;FALSE
Zoom from;0,0;kN
Zoom to;6,0;kN












Cycle control settings
Use the settings from global setup;True
Measuring function;Y (X)
Delta-X;Automatic
START condition;Dig-Input
STOP condition;Dig-Input
Cycle time out;20,00;s
Turning point RIGHT;YMAX
Turning point LEFT;NONE
Cut curve at;NONE










Evaluation settings
Capture only first NOK-EO for statistics;False
Hysteresis-X;0,0;%
Hysteresis-Y;100,0;%






Trigger Y settings
Threshold;1,9;kN
Value X at TRIGGER Y;0,00;mm
Approach from;BELOW






Block settings
Value X at block;XMAX
Block at;0,00;mm







Measuring curve
Number of measuring points;317
Ref. Graph on;ABSOLUTE
Curve segments;0;317;316;317;


Time;X(ABSOLUTE);Y;X (ABSOLUTE)


s;mm;kN;mm
0,0000;-0,10322;-0,04568;-0,10322
0,0900;0,31220;-0,04574;0,31220
0,0940;0,73076;-0,04574;0,73076
0,0968;1,14746;-0,04574;1,14746
0,0990;1,55368;-0,04574;1,55368
0,1011;1,98249;-0,04574;1,98249
0,1030;2,41874;-0,04574;2,41874
0,1047;2,84859;-0,04574;2,84859
0,1062;3,25994;-0,04573;3,25994
0,1077;3,69829;-0,04573;3,69829
0,1090;4,10358;-0,04573;4,10358
0,1103;4,52924;-0,04573;4,52924
0,1116;4,97446;-0,04573;4,97446
0,1129;5,43702;-0,04572;5,43702
0,1141;5,84382;-0,04572;5,84382
0,1152;6,25586;-0,04572;6,25586
0,1163;6,66849;-0,04572;6,66849
0,1174;7,07727;-0,04571;7,07727
0,1186;7,47849;-0,04571;7,47849
0,1199;7,93372;-0,04571;7,93372
0,1212;8,37276;-0,04570;8,37276
0,1225;8,79458;-0,04569;8,79458
0,1238;9,19918;-0,04569;9,19918
0,1253;9,64067;-0,04569;9,64067
0,1268;10,06063;-0,04568;10,06063
0,1285;10,50887;-0,04567;10,50887
0,1302;10,93476;-0,04566;10,93476
0,1319;11,34378;-0,04564;11,34378
0,1338;11,78597;-0,04563;11,78597
0,1356;12,22164;-0,04561;12,22164
0,1375;12,65394;-0,04559;12,65394
0,1394;13,08484;-0,04557;13,08484
0,1413;13,51597;-0,04556;13,51597
0,1432;13,95013;-0,04553;13,95013
0,1450;14,38859;-0,04551;14,38859
0,1469;14,83090;-0,04548;14,83090
0,1486;15,23118;-0,04545;15,23118
0,1503;15,63310;-0,04545;15,63310
0,1520;16,03688;-0,04543;16,03688
0,1537;16,44287;-0,04539;16,44287
0,1554;16,85107;-0,04536;16,85107
0,1570;17,26090;-0,04532;17,26090
0,1587;17,67190;-0,04529;17,67190
0,1604;18,08429;-0,04525;18,08429
0,1621;18,49855;-0,04520;18,49855
0,1638;18,91501;-0,04517;18,91501
0,1655;19,33357;-0,04512;19,33357
0,1672;19,75376;-0,04512;19,75376
0,1689;20,17535;-0,04507;20,17535
0,1706;20,59915;-0,04502;20,59915
0,1723;21,02563;-0,04497;21,02563
0,1739;21,45536;-0,04492;21,45536
0,1756;21,88766;-0,04486;21,88766
0,1773;22,32217;-0,04481;22,32217
0,1790;22,75842;-0,04474;22,75842
0,1807;23,19688;-0,04468;23,19688
0,1824;23,63803;-0,04461;23,63803
0,1841;24,08208;-0,04461;24,08208
0,1858;24,52822;-0,04455;24,52822
0,1875;24,97577;-0,04447;24,97577
0,1891;25,42436;-0,04440;25,42436
0,1908;25,87435;-0,04432;25,87435
0,1923;26,27557;-0,04425;26,27557
0,1938;26,67807;-0,04417;26,67807
0,1953;27,08126;-0,04417;27,08126
0,1968;27,48481;-0,04409;27,48481
0,1983;27,88800;-0,04400;27,88800
0,1998;28,29109;-0,04392;28,29109
0,2014;28,69382;-0,04382;28,69382
0,2029;29,09655;-0,04382;29,09655
0,2044;29,49870;-0,04374;29,49870
0,2059;29,90003;-0,04364;29,90003
0,2075;30,34967;-0,04355;30,34967
0,2092;30,79710;-0,04345;30,79710
0,2109;31,24208;-0,04335;31,24208
0,2126;31,68450;-0,04325;31,68450
0,2143;32,12448;-0,04314;32,12448
0,2160;32,56132;-0,04314;32,56132
0,2177;32,99501;-0,04304;32,99501
0,2194;33,42521;-0,04293;33,42521
0,2211;33,85204;-0,04282;33,85204
0,2228;34,27572;-0,04270;34,27572
0,2244;34,69614;-0,04258;34,69614
0,2261;35,11307;-0,04247;35,11307
0,2278;35,52640;-0,04235;35,52640
0,2295;35,93588;-0,04223;35,93588
0,2312;36,34175;-0,04211;36,34175
0,2329;36,74402;-0,04211;36,74402
0,2348;37,18691;-0,04198;37,18691
0,2366;37,62526;-0,04186;37,62526
0,2385;38,05907;-0,04173;38,05907
0,2404;38,48857;-0,04160;38,48857
0,2423;38,91411;-0,04147;38,91411
0,2442;39,33582;-0,04134;39,33582
0,2460;39,75380;-0,04120;39,75380
0,2479;40,16863;-0,04108;40,16863
0,2498;40,58044;-0,04094;40,58044
0,2517;40,98992;-0,04080;40,98992
0,2535;41,39731;-0,04066;41,39731
0,2554;41,80272;-0,04052;41,80272
0,2573;42,20673;-0,04038;42,20673
0,2592;42,60970;-0,04023;42,60970
0,2611;43,01196;-0,04009;43,01196
0,2629;43,41388;-0,03995;43,41388
0,2648;43,81533;-0,03981;43,81533
0,2667;44,21666;-0,03966;44,21666
0,2686;44,61777;-0,03951;44,61777
0,2704;45,01898;-0,03936;45,01898
0,2723;45,42020;-0,03921;45,42020
0,2742;45,82165;-0,03906;45,82165
0,2761;46,22345;-0,03891;46,22345
0,2779;46,62572;-0,03876;46,62572
0,2798;47,02845;-0,03860;47,02845
0,2817;47,43165;-0,03845;47,43165
0,2836;47,83531;-0,03830;47,83531
0,2855;48,23909;-0,03814;48,23909
0,2873;48,64310;-0,03798;48,64310
0,2892;49,04723;-0,03783;49,04723
0,2911;49,45136;-0,03767;49,45136
0,2930;49,85560;-0,03751;49,85560
0,2948;50,25984;-0,03735;50,25984
0,2967;50,66409;-0,03720;50,66409
0,2986;51,06810;-0,03703;51,06810
0,3005;51,47223;-0,03687;51,47223
0,3024;51,87612;-0,03671;51,87612
0,3042;52,28002;-0,03655;52,28002
0,3061;52,68357;-0,03638;52,68357
0,3080;53,08665;-0,03622;53,08665
0,3099;53,48914;-0,03606;53,48914
0,3117;53,89094;-0,03589;53,89094
0,3136;54,29170;-0,03572;54,29170
0,3157;54,73133;-0,03540;54,73133
0,3178;55,16909;-0,03523;55,16909
0,3198;55,60476;-0,03507;55,60476
0,3219;56,03822;-0,03490;56,03822
0,3239;56,46901;-0,03473;56,46901
0,3260;56,89711;-0,03456;56,89711
0,3281;57,32208;-0,03439;57,32208
0,3301;57,74390;-0,03423;57,74390
0,3322;58,16234;-0,03406;58,16234
0,3343;58,57753;-0,03389;58,57753
0,3363;58,98922;-0,03355;58,98922
0,3384;59,39765;-0,03338;59,39765
0,3405;59,80260;-0,03322;59,80260
0,3425;60,20405;-0,03305;60,20405
0,3448;60,63821;-0,03287;60,63821
0,3470;61,06841;-0,03271;61,06841
0,3493;61,49488;-0,03254;61,49488
0,3515;61,91787;-0,03220;61,91787
0,3538;62,33736;-0,03203;62,33736
0,3560;62,75336;-0,03186;62,75336
0,3583;63,16587;-0,03169;63,16587
0,3606;63,57547;-0,03152;63,57547
0,3628;63,98297;-0,03119;63,98297
0,3651;64,38896;-0,03102;64,38896
0,3673;64,79425;-0,03085;64,79425
0,3696;65,19896;-0,03068;65,19896
0,3718;65,60344;-0,03051;65,60344
0,3741;66,00757;-0,03018;66,00757
0,3763;66,41181;-0,03001;66,41181
0,3786;66,81617;-0,02985;66,81617
0,3808;67,22123;-0,02968;67,22123
0,3831;67,62722;-0,02951;67,62722
0,3853;68,03461;-0,02918;68,03461
0,3876;68,44386;-0,02901;68,44386
0,3898;68,85509;-0,02885;68,85509
0,3921;69,26818;-0,02868;69,26818
0,3943;69,68325;-0,02851;69,68325
0,3966;70,10006;-0,02819;70,10006
0,3989;70,51851;-0,02802;70,51851
0,4011;70,93835;-0,02786;70,93835
0,4034;71,35982;-0,02769;71,35982
0,4056;71,78269;-0,02752;71,78269
0,4079;72,20707;-0,02720;72,20707
0,4101;72,63262;-0,02703;72,63262
0,4124;73,05909;-0,02687;73,05909
0,4146;73,48603;-0,02671;73,48603
0,4169;73,91321;-0,02654;73,91321
0,4191;74,34050;-0,02621;74,34050
0,4214;74,76721;-0,02605;74,76721
0,4236;75,19310;-0,02588;75,19310
0,4259;75,61818;-0,02572;75,61818
0,4281;76,04245;-0,02556;76,04245
0,4304;76,46578;-0,02523;76,46578
0,4326;76,88783;-0,02507;76,88783
0,4349;77,30802;-0,02490;77,30802
0,4372;77,72577;-0,02474;77,72577
0,4394;78,14072;-0,02458;78,14072
0,4417;78,55253;-0,02426;78,55253
0,4439;78,96120;-0,02409;78,96120
0,4462;79,36673;-0,02393;79,36673
0,4484;79,76934;-0,02376;79,76934
0,4509;80,20210;-0,02344;80,20210
0,4533;80,63126;-0,02328;80,63126
0,4557;81,05610;-0,02312;81,05610
0,4582;81,47629;-0,02296;81,47629
0,4606;81,89136;-0,02264;81,89136
0,4631;82,30096;-0,02247;82,30096
0,4655;82,70544;-0,02231;82,70544
0,4681;83,13552;-0,02199;83,13552
0,4708;83,56014;-0,02183;83,56014
0,4734;83,97940;-0,02152;83,97940
0,4760;84,39330;-0,02136;84,39330
0,4786;84,80185;-0,02119;84,80185
0,4813;85,20540;-0,02088;85,20540
0,4841;85,63269;-0,02072;85,63269
0,4869;86,05556;-0,02040;86,05556
0,4897;86,47482;-0,02025;86,47482
0,4925;86,89140;-0,01994;86,89140
0,4954;87,30565;-0,01978;87,30565
0,4982;87,71851;-0,01947;87,71851
0,5010;88,13032;-0,01931;88,13032
0,5038;88,54155;-0,01901;88,54155
0,5066;88,95243;-0,01886;88,95243
0,5094;89,36296;-0,01854;89,36296
0,5123;89,77384;-0,01840;89,77384
0,5151;90,18600;-0,01809;90,18600
0,5179;90,59979;-0,01794;90,59979
0,5207;91,01590;-0,01764;91,01590
0,5235;91,43481;-0,01749;91,43481
0,5263;91,85722;-0,01718;91,85722
0,5291;92,28369;-0,01704;92,28369
0,5318;92,68572;-0,01673;92,68572
0,5344;93,09218;-0,01658;93,09218
0,5370;93,50294;-0,01643;93,50294
0,5397;93,91848;-0,01614;93,91848
0,5423;94,33855;-0,01598;94,33855
0,5449;94,76328;-0,01568;94,76328
0,5475;95,19290;-0,01554;95,19290
0,5500;95,59587;-0,01539;95,59587
0,5524;96,00209;-0,01508;96,00209
0,5549;96,41111;-0,01493;96,41111
0,5573;96,82233;-0,01479;96,82233
0,5597;97,23554;-0,01448;97,23554
0,5622;97,65061;-0,01433;97,65061
0,5646;98,06719;-0,01418;98,06719
0,5671;98,48482;-0,01404;98,48482
0,5695;98,90315;-0,01373;98,90315
0,5720;99,32148;-0,01358;99,32148
0,5744;99,73946;-0,01342;99,73946
0,5768;100,15674;-0,01313;100,15674
0,5793;100,57262;-0,01297;100,57262
0,5817;100,98676;-0,01282;100,98676
0,5842;101,39869;-0,01252;101,39869
0,5866;101,80759;-0,01237;101,80759
0,5890;102,21288;-0,01221;102,21288
0,5915;102,61445;-0,01206;102,61445
0,5941;103,04209;-0,01176;103,04209
0,5967;103,46333;-0,01160;103,46333
0,5994;103,87607;-0,01130;103,87607
0,6020;104,27892;-0,01115;104,27892
0,6048;104,69841;-0,01083;104,69841
0,6076;105,10614;-0,01068;105,10614
0,6106;105,53053;-0,01038;105,53053
0,6136;105,94583;-0,01022;105,94583
0,6166;106,35193;-0,00992;106,35193
0,6198;106,77212;-0,00961;106,77212
0,6230;107,17951;-0,00945;107,17951
0,6264;107,59551;-0,00915;107,59551
0,6300;108,01722;-0,00884;108,01722
0,6335;108,42274;-0,00854;108,42274
0,6373;108,83537;-0,00822;108,83537
0,6410;109,23740;-0,00792;109,23740
0,6450;109,65317;-0,00760;109,65317
0,6489;110,06696;-0,00729;110,06696
0,6529;110,48214;-0,00697;110,48214
0,6568;110,90012;-0,00666;110,90012
0,6606;111,30227;-0,00634;111,30227
0,6643;111,71082;-0,00602;111,71082
0,6681;112,12927;-0,00570;112,12927
0,6716;112,53886;-0,00537;112,53886
0,6750;112,93927;-0,00505;112,93927
0,6784;113,35154;-0,00471;113,35154
0,6818;113,77453;-0,00437;113,77453
0,6850;114,18122;-0,00421;114,18122
0,6882;114,59186;-0,00386;114,59186
0,6914;115,00321;-0,00351;115,00321
0,6945;115,41222;-0,00334;115,41222
0,6977;115,81647;-0,00298;115,81647
0,7011;116,23980;-0,00263;116,23980
0,7045;116,66232;-0,00226;116,66232
0,7077;117,06575;-0,00208;117,06575
0,7109;117,47768;-0,00171;117,47768
0,7141;117,88995;-0,00133;117,88995
0,7176;118,30037;-0,00094;118,30037
0,7227;118,71031;-0,00054;118,71031
0,9775;119,11037;0,16671;119,11037
1,2946;119,52311;0,64281;119,52311
1,2991;119,93376;0,64720;119,93376
1,3028;120,33753;0,65156;120,33753
1,3064;120,74050;0,65589;120,74050
1,3101;121,15743;0,66020;121,15743
1,3143;121,56121;0,66448;121,56121
1,3201;121,96359;0,67298;121,96359
1,3312;122,36935;0,68358;122,36935
1,3407;122,77953;0,69639;122,77953
1,3464;123,19378;0,70290;123,19378
1,3511;123,59500;0,70728;123,59500
1,3558;124,01124;0,71394;124,01124
1,3605;124,42537;0,71845;124,42537
1,3655;124,83672;0,72533;124,83672
1,3712;125,23701;0,73234;125,23701
1,3772;125,63846;0,73950;125,63846
1,3851;126,04468;0,74932;126,04468
1,5848;126,31204;1,35124;126,31204
1,6712;126,34417;1,95166;126,34417
1,7388;126,36430;2,56457;126,36430
1,7970;126,37862;3,17041;126,37862
1,8514;126,39084;3,77894;126,39084
1,9040;126,40143;4,38353;126,40143
1,9565;126,41028;4,98695;126,41028
2,0110;126,42029;5,59573;126,42029
2,0673;126,42821;6,19662;126,42821
2,1274;126,43694;6,79734;126,43694
2,1931;126,44264;7,40248;126,44264
2,1948;126,44287;7,40248;126,44287
2,1950;126,44287;7,41896;126,44287
