Part protocol
Network name;Part_OP10_MP-002_2020-08-26_16-04-56_0036_OK.csv
Protocol version;2.01.00

Index;Result information;Process values - curve related;Process values - EO related;Evaluation objects settings;Switch signal settings;Device information;Channel-X settings;Channel-Y settings;Cycle control settings;Evaluation settings;Trigger Y settings;Block settings;Measuring curve;Measuring points;Sequence;
Line;10;30;40;70;100;120;150;190;220;240;250;260;270;280;570;



Result information
Date;2020/08/26
Time;16:04:56
Cycle number;36
Total result;OK
Triggered switch signals
Part serial number;0036
Measuring program name;D57-Right
Measuring program number;2
Zero X offset;0,00;mm
Tara Y offset;0,0;kN









Process values - curve related
Block X;116,12;mm;XMIN-X;-0,04;mm
Block Y;4,9;kN;XMIN-Y;0,0;kN
Ref X;-;mm;XMAX-X;116,12;mm
Peak-peak X;116,16;mm;XMAX-Y;4,9;kN
Peak-peak Y;5,0;kN;YMIN-X;0,37;mm
;;;YMIN-Y;0,0;kN
;;;YMAX-X;116,12;mm
;;;YMAX-Y;4,9;kN

Process values - EO related;Result;Entry;Exit;XMIN-X;XMIN-Y;XMAX-X;XMAX-Y;YMIN-Y;YMIN-X;YMAX-Y;YMAX-X
;;;;mm;kN;mm;kN;kN;mm;kN;mm
EO-01;OK;0,7;0,7;;;;;0,7;115,00;0,7;115,49;;;;;;
EO-02;OK;;116,10;116,08;2,3;116,10;3,2;2,3;116,08;;;;;;;;
EO-03;None;
EO-04;None;
























Evaluation objects settings;Reaction;X reference;Y-Reference;XMin;XMax;YMin;YMax;Entry;Exit;Curve part;Catch zone X;Catch zone Y
EO-01;UNI-BOX;ABSOLUTE;-;115,00;115,50;0,4;2,0;LEFT;RIGHT;ANY;+50%;+50%
EO-02;UNI-BOX;ABSOLUTE;-;115,40;117,10;2,3;3,3;ANY;ABOVE;ANY;+50%;+50%
EO-03;OFF
EO-04;OFF

























Switch signal settings;Channel;Threshold at;;Trigger from;Reference;Latch until
Type S1;OFF
Type S2;OFF

















Device information
Device type;maXYmos BL
Device type number;5867B1011
Device serial number;5182443
Firmware version;2.3.2 (r22473-BL_v2.3.x)
-
-
-
-
-
IP Address;10.0.0.18
Network name;OP10
Profibus address;10
-
-
-
Station name;OP10
Company name;
Comment;











Channel-X settings
Use the settings from global setup;True
Sensor-X type;Â±10V
Unit;mm
Used range from;0,00;mm
Used range to;200,00;mm
Decimal places;XXXX.XX
Scaling by;Teach-In
Point 1;0,00;mm;-0,350;%
Point 2;200,00;mm;10,000;%
Invert signal;FALSE
Filter;20 Hz
Test point;0,00;mm
Tolerance;2,00;mm
Enable sensor test by dig-input;FALSE
Zoom from;100,00;mm
Zoom to;120,00;mm























Channel-Y settings
Use the settings from global setup;True
Sensor-Y type;Strain Gage
Unit;kN
Used range from;0,0;kN
Used range to;20,0;kN
Decimal places;XXXXX.X
Scaling by;Teach-In
Point 1;0,0;kN;-0,01562;%
Point 2;20,0;kN;2,00000;%
Invert signal;FALSE
Filter;1 Hz
Piezo reset;-
Test point;0,0;kN
Tolerance;0,1;kN
Enable sensor test by dig-input;FALSE
Zoom from;0,0;kN
Zoom to;5,0;kN












Cycle control settings
Use the settings from global setup;True
Measuring function;Y (X)
Delta-X;Automatic
START condition;Dig-Input
STOP condition;Dig-Input
Cycle time out;20,00;s
Turning point RIGHT;YMAX
Turning point LEFT;NONE
Cut curve at;NONE










Evaluation settings
Capture only first NOK-EO for statistics;False
Hysteresis-X;0,0;%
Hysteresis-Y;100,0;%






Trigger Y settings
Threshold;1,8;kN
Value X at TRIGGER Y;0,00;mm
Approach from;BELOW






Block settings
Value X at block;XMAX
Block at;0,00;mm







Measuring curve
Number of measuring points;286
Ref. Graph on;ABSOLUTE
Curve segments;0;285;284;286;


Time;X(ABSOLUTE);Y;X (ABSOLUTE)


s;mm;kN;mm
0,0000;-0,04246;-0,03519;-0,04246
0,0933;0,36784;-0,03520;0,36784
0,0966;0,78943;-0,03519;0,78943
0,0991;1,22498;-0,03519;1,22498
0,1010;1,63993;-0,03519;1,63993
0,1026;2,07316;-0,03518;2,07316
0,1041;2,50243;-0,03517;2,50243
0,1055;2,90633;-0,03517;2,90633
0,1068;3,32908;-0,03517;3,32908
0,1081;3,76277;-0,03516;3,76277
0,1094;4,20065;-0,03516;4,20065
0,1107;4,63761;-0,03515;4,63761
0,1120;5,06979;-0,03513;5,06979
0,1133;5,49440;-0,03512;5,49440
0,1147;5,90889;-0,03512;5,90889
0,1160;6,31208;-0,03510;6,31208
0,1175;6,75881;-0,03509;6,75881
0,1190;7,19216;-0,03506;7,19216
0,1205;7,61409;-0,03506;7,61409
0,1220;8,02707;-0,03504;8,02707
0,1235;8,43271;-0,03501;8,43271
0,1250;8,83276;-0,03498;8,83276
0,1267;9,27868;-0,03495;9,27868
0,1284;9,72226;-0,03491;9,72226
0,1301;10,16550;-0,03491;10,16550
0,1317;10,60967;-0,03487;10,60967
0,1334;11,05523;-0,03483;11,05523
0,1351;11,50231;-0,03478;11,50231
0,1368;11,95032;-0,03473;11,95032
0,1385;12,39880;-0,03467;12,39880
0,1402;12,84681;-0,03461;12,84681
0,1419;13,29330;-0,03455;13,29330
0,1436;13,73735;-0,03448;13,73735
0,1453;14,17803;-0,03441;14,17803
0,1470;14,61487;-0,03441;14,61487
0,1486;15,04728;-0,03433;15,04728
0,1503;15,47515;-0,03424;15,47515
0,1520;15,89825;-0,03416;15,89825
0,1537;16,31658;-0,03407;16,31658
0,1554;16,73014;-0,03398;16,73014
0,1571;17,13892;-0,03387;17,13892
0,1588;17,54305;-0,03376;17,54305
0,1607;17,98663;-0,03365;17,98663
0,1625;18,42498;-0,03353;18,42498
0,1644;18,85879;-0,03341;18,85879
0,1663;19,28876;-0,03328;19,28876
0,1682;19,71547;-0,03315;19,71547
0,1700;20,13927;-0,03301;20,13927
0,1719;20,56086;-0,03286;20,56086
0,1738;20,98035;-0,03272;20,98035
0,1757;21,39821;-0,03256;21,39821
0,1776;21,81514;-0,03239;21,81514
0,1794;22,23126;-0,03223;22,23126
0,1813;22,64691;-0,03205;22,64691
0,1832;23,06210;-0,03187;23,06210
0,1851;23,47705;-0,03168;23,47705
0,1869;23,89165;-0,03149;23,89165
0,1888;24,30637;-0,03129;24,30637
0,1907;24,72109;-0,03109;24,72109
0,1926;25,13628;-0,03087;25,13628
0,1945;25,55193;-0,03066;25,55193
0,1963;25,96816;-0,03043;25,96816
0,1982;26,38510;-0,03020;26,38510
0,2001;26,80261;-0,02997;26,80261
0,2020;27,22082;-0,02973;27,22082
0,2038;27,63973;-0,02948;27,63973
0,2057;28,05946;-0,02922;28,05946
0,2076;28,48011;-0,02896;28,48011
0,2095;28,90135;-0,02869;28,90135
0,2113;29,32329;-0,02841;29,32329
0,2132;29,74569;-0,02813;29,74569
0,2151;30,16879;-0,02785;30,16879
0,2170;30,59259;-0,02755;30,59259
0,2189;31,01732;-0,02725;31,01732
0,2207;31,44310;-0,02694;31,44310
0,2226;31,87004;-0,02663;31,87004
0,2245;32,29838;-0,02631;32,29838
0,2264;32,72800;-0,02598;32,72800
0,2282;33,15890;-0,02564;33,15890
0,2301;33,59084;-0,02531;33,59084
0,2320;34,02372;-0,02496;34,02372
0,2339;34,45741;-0,02461;34,45741
0,2358;34,89146;-0,02426;34,89146
0,2376;35,32550;-0,02389;35,32550
0,2395;35,75954;-0,02351;35,75954
0,2414;36,19323;-0,02314;36,19323
0,2433;36,62646;-0,02276;36,62646
0,2451;37,05922;-0,02237;37,05922
0,2470;37,49140;-0,02198;37,49140
0,2489;37,92253;-0,02157;37,92253
0,2508;38,35273;-0,02116;38,35273
0,2527;38,78165;-0,02076;38,78165
0,2545;39,20918;-0,02034;39,20918
0,2564;39,63530;-0,01991;39,63530
0,2583;40,05992;-0,01949;40,05992
0,2602;40,48290;-0,01904;40,48290
0,2620;40,90426;-0,01861;40,90426
0,2639;41,32352;-0,01816;41,32352
0,2658;41,74056;-0,01771;41,74056
0,2677;42,15540;-0,01726;42,15540
0,2695;42,56791;-0,01679;42,56791
0,2714;42,97797;-0,01632;42,97797
0,2733;43,38559;-0,01585;43,38559
0,2752;43,79065;-0,01538;43,79065
0,2771;44,19327;-0,01490;44,19327
0,2791;44,63301;-0,01441;44,63301
0,2812;45,06973;-0,01392;45,06973
0,2833;45,50331;-0,01342;45,50331
0,2853;45,93374;-0,01293;45,93374
0,2874;46,36115;-0,01242;46,36115
0,2894;46,78553;-0,01191;46,78553
0,2915;47,20700;-0,01140;47,20700
0,2936;47,62545;-0,01036;47,62545
0,2956;48,04110;-0,00983;48,04110
0,2977;48,45396;-0,00931;48,45396
0,2998;48,86425;-0,00877;48,86425
0,3018;49,27187;-0,00823;49,27187
0,3039;49,67716;-0,00769;49,67716
0,3060;50,08013;-0,00715;50,08013
0,3080;50,48077;-0,00660;50,48077
0,3103;50,91527;-0,00606;50,91527
0,3125;51,34734;-0,00495;51,34734
0,3148;51,77719;-0,00439;51,77719
0,3170;52,20483;-0,00383;52,20483
0,3193;52,63061;-0,00327;52,63061
0,3216;53,05464;-0,00270;53,05464
0,3238;53,47727;-0,00156;53,47727
0,3261;53,89898;-0,00098;53,89898
0,3283;54,31998;-0,00041;54,31998
0,3306;54,74041;0,00016;54,74041
0,3328;55,16048;0,00075;55,16048
0,3351;55,58032;0,00191;55,58032
0,3373;55,99981;0,00250;55,99981
0,3396;56,41884;0,00309;56,41884
0,3418;56,83752;0,00367;56,83752
0,3441;57,25585;0,00426;57,25585
0,3463;57,67394;0,00545;57,67394
0,3486;58,09227;0,00604;58,09227
0,3508;58,51071;0,00664;58,51071
0,3531;58,92939;0,00724;58,92939
0,3553;59,34842;0,00784;59,34842
0,3576;59,76756;0,00903;59,76756
0,3599;60,18694;0,00963;60,18694
0,3621;60,60666;0,01024;60,60666
0,3644;61,02662;0,01084;61,02662
0,3666;61,44693;0,01144;61,44693
0,3689;61,86770;0,01265;61,86770
0,3711;62,28859;0,01325;62,28859
0,3734;62,70948;0,01386;62,70948
0,3756;63,12967;0,01446;63,12967
0,3779;63,54916;0,01506;63,54916
0,3801;63,96749;0,01627;63,96749
0,3824;64,38477;0,01687;64,38477
0,3846;64,80054;0,01747;64,80054
0,3869;65,21479;0,01808;65,21479
0,3891;65,62754;0,01869;65,62754
0,3914;66,03853;0,01989;66,03853
0,3936;66,44790;0,02049;66,44790
0,3959;66,85587;0,02109;66,85587
0,3982;67,26267;0,02169;67,26267
0,4004;67,66843;0,02229;67,66843
0,4027;68,07326;0,02348;68,07326
0,4049;68,47692;0,02408;68,47692
0,4072;68,87942;0,02468;68,87942
0,4094;69,28052;0,02527;69,28052
0,4117;69,68069;0,02586;69,68069
0,4141;70,11310;0,02705;70,11310
0,4165;70,54447;0,02764;70,54447
0,4190;70,97455;0,02822;70,97455
0,4214;71,40312;0,02940;71,40312
0,4239;71,83006;0,02998;71,83006
0,4263;72,25514;0,03055;72,25514
0,4288;72,67859;0,03172;72,67859
0,4312;73,10041;0,03229;73,10041
0,4336;73,52107;0,03287;73,52107
0,4361;73,94045;0,03344;73,94045
0,4385;74,35877;0,03458;74,35877
0,4410;74,77559;0,03515;74,77559
0,4434;75,19089;0,03571;75,19089
0,4458;75,60433;0,03683;75,60433
0,4483;76,01626;0,03740;76,01626
0,4507;76,42679;0,03795;76,42679
0,4532;76,83639;0,03905;76,83639
0,4556;77,24494;0,03961;77,24494
0,4580;77,65267;0,04015;77,65267
0,4605;78,05936;0,04070;78,05936
0,4629;78,46512;0,04177;78,46512
0,4654;78,86948;0,04231;78,86948
0,4678;79,27233;0,04285;79,27233
0,4702;79,67366;0,04391;79,67366
0,4727;80,07372;0,04444;80,07372
0,4753;80,50345;0,04496;80,50345
0,4779;80,93202;0,04600;80,93202
0,4806;81,35931;0,04652;81,35931
0,4832;81,78509;0,04754;81,78509
0,4858;82,20924;0,04805;82,20924
0,4885;82,63199;0,04856;82,63199
0,4911;83,05358;0,04956;83,05358
0,4937;83,47412;0,05006;83,47412
0,4963;83,89373;0,05104;83,89373
0,4990;84,31252;0,05153;84,31252
0,5016;84,73073;0,05202;84,73073
0,5042;85,14860;0,05298;85,14860
0,5069;85,56588;0,05346;85,56588
0,5095;85,98281;0,05441;85,98281
0,5121;86,39904;0,05487;86,39904
0,5147;86,81446;0,05534;86,81446
0,5174;87,22906;0,05626;87,22906
0,5200;87,64285;0,05672;87,64285
0,5226;88,05594;0,05763;88,05594
0,5253;88,46799;0,05808;88,46799
0,5279;88,87898;0,05852;88,87898
0,5305;89,28881;0,05941;89,28881
0,5331;89,69748;0,05984;89,69748
0,5358;90,10510;0,06071;90,10510
0,5384;90,51179;0,06114;90,51179
0,5410;90,91766;0,06157;90,91766
0,5436;91,32296;0,06241;91,32296
0,5463;91,72755;0,06282;91,72755
0,5489;92,13168;0,06365;92,13168
0,5515;92,53499;0,06406;92,53499
0,5542;92,93726;0,06446;92,93726
0,5568;93,33836;0,06527;93,33836
0,5596;93,76658;0,06567;93,76658
0,5624;94,19329;0,06645;94,19329
0,5652;94,61849;0,06684;94,61849
0,5681;95,04228;0,06762;95,04228
0,5709;95,46469;0,06800;95,46469
0,5737;95,88534;0,06875;95,88534
0,5765;96,30460;0,06913;96,30460
0,5793;96,72247;0,06986;96,72247
0,5821;97,13916;0,07023;97,13916
0,5850;97,55505;0,07095;97,55505
0,5878;97,97058;0,07131;97,97058
0,5906;98,38589;0,07202;98,38589
0,5934;98,80061;0,07237;98,80061
0,5962;99,21428;0,07305;99,21428
0,5990;99,62655;0,07340;99,62655
0,6018;100,03767;0,07407;100,03767
0,6047;100,44773;0,07441;100,44773
0,6075;100,85675;0,07507;100,85675
0,6103;101,26460;0,07540;101,26460
0,6131;101,67152;0,07604;101,67152
0,6159;102,07716;0,07637;102,07716
0,6187;102,48141;0,07700;102,48141
0,6216;102,88425;0,07731;102,88425
0,6244;103,28605;0,07793;103,28605
0,6272;103,68716;0,07824;103,68716
0,6300;104,08791;0,07885;104,08791
0,6328;104,48855;0,07914;104,48855
0,6356;104,88906;0,07974;104,88906
0,6385;105,28924;0,08003;105,28924
0,6415;105,71536;0,08061;105,71536
0,6445;106,14044;0,08089;106,14044
0,6475;106,56366;0,08147;106,56366
0,6505;106,98315;0,08202;106,98315
0,6535;107,39566;0,08230;107,39566
0,6565;107,79734;0,08285;107,79734
0,6597;108,20927;0,08339;108,20927
0,6631;108,62364;0,08366;108,62364
0,6666;109,02870;0,08419;109,02870
0,6708;109,44167;0,08472;109,44167
0,6758;109,84429;0,08549;109,84429
0,6848;110,24574;0,08678;110,24574
0,7440;110,64836;0,09580;110,64836
0,7534;111,05318;0,09772;111,05318
0,7597;111,45591;0,09943;111,45591
0,7652;111,85958;0,10080;111,85958
0,7703;112,26010;0,10177;112,26010
0,7757;112,66166;0,10330;112,66166
0,7847;113,06579;0,10611;113,06579
1,2524;113,47620;0,66382;113,47620
1,2576;113,88929;0,67018;113,88929
1,2618;114,29284;0,67436;114,29284
1,2657;114,69336;0,67850;114,69336
1,2698;115,09353;0,68463;115,09353
1,2749;115,49405;0,68867;115,49405
1,2867;115,89562;0,70264;115,89562
1,4688;116,04938;1,31323;116,04938
1,5327;116,06975;1,92789;116,06975
1,5815;116,08371;2,53892;116,08371
1,6247;116,09512;3,15089;116,09512
1,6660;116,10420;3,77234;116,10420
1,7054;116,11177;4,37722;116,11177
1,7429;116,11945;4,94837;116,11945
1,7431;116,11956;4,94837;116,11956
