Part protocol
Network name;Part_OP10_MP-002_2020-08-26_10-20-06_0011_OK.csv
Protocol version;2.01.00

Index;Result information;Process values - curve related;Process values - EO related;Evaluation objects settings;Switch signal settings;Device information;Channel-X settings;Channel-Y settings;Cycle control settings;Evaluation settings;Trigger Y settings;Block settings;Measuring curve;Measuring points;Sequence;
Line;10;30;40;70;100;120;150;190;220;240;250;260;270;280;570;



Result information
Date;2020/08/26
Time;10:20:06
Cycle number;11
Total result;OK
Triggered switch signals
Part serial number;0011
Measuring program name;D57-Right
Measuring program number;2
Zero X offset;0,00;mm
Tara Y offset;0,0;kN









Process values - curve related
Block X;116,09;mm;XMIN-X;0,04;mm
Block Y;4,6;kN;XMIN-Y;0,0;kN
Ref X;-;mm;XMAX-X;116,09;mm
Peak-peak X;116,05;mm;XMAX-Y;4,6;kN
Peak-peak Y;4,7;kN;YMIN-X;0,04;mm
;;;YMIN-Y;0,0;kN
;;;YMAX-X;116,09;mm
;;;YMAX-Y;4,6;kN

Process values - EO related;Result;Entry;Exit;XMIN-X;XMIN-Y;XMAX-X;XMAX-Y;YMIN-Y;YMIN-X;YMAX-Y;YMAX-X
;;;;mm;kN;mm;kN;kN;mm;kN;mm
EO-01;OK;0,7;0,7;;;;;0,7;115,00;0,7;115,43;;;;;;
EO-02;OK;;116,07;116,05;2,3;116,07;3,1;2,3;116,05;;;;;;;;
EO-03;None;
EO-04;None;
























Evaluation objects settings;Reaction;X reference;Y-Reference;XMin;XMax;YMin;YMax;Entry;Exit;Curve part;Catch zone X;Catch zone Y
EO-01;UNI-BOX;ABSOLUTE;-;115,00;115,50;0,4;2,0;LEFT;RIGHT;ANY;+50%;+50%
EO-02;UNI-BOX;ABSOLUTE;-;115,40;117,10;2,3;3,3;ANY;ABOVE;ANY;+50%;+50%
EO-03;OFF
EO-04;OFF

























Switch signal settings;Channel;Threshold at;;Trigger from;Reference;Latch until
Type S1;OFF
Type S2;OFF

















Device information
Device type;maXYmos BL
Device type number;5867B1011
Device serial number;5182443
Firmware version;2.3.2 (r22473-BL_v2.3.x)
-
-
-
-
-
IP Address;10.0.0.18
Network name;OP10
Profibus address;10
-
-
-
Station name;OP10
Company name;
Comment;











Channel-X settings
Use the settings from global setup;True
Sensor-X type;Â±10V
Unit;mm
Used range from;0,00;mm
Used range to;200,00;mm
Decimal places;XXXX.XX
Scaling by;Teach-In
Point 1;0,00;mm;-0,350;%
Point 2;200,00;mm;10,000;%
Invert signal;FALSE
Filter;20 Hz
Test point;0,00;mm
Tolerance;2,00;mm
Enable sensor test by dig-input;FALSE
Zoom from;100,00;mm
Zoom to;120,00;mm























Channel-Y settings
Use the settings from global setup;True
Sensor-Y type;Strain Gage
Unit;kN
Used range from;0,0;kN
Used range to;20,0;kN
Decimal places;XXXXX.X
Scaling by;Teach-In
Point 1;0,0;kN;-0,01562;%
Point 2;20,0;kN;2,00000;%
Invert signal;FALSE
Filter;1 Hz
Piezo reset;-
Test point;0,0;kN
Tolerance;0,1;kN
Enable sensor test by dig-input;FALSE
Zoom from;0,0;kN
Zoom to;5,0;kN












Cycle control settings
Use the settings from global setup;True
Measuring function;Y (X)
Delta-X;Automatic
START condition;Dig-Input
STOP condition;Dig-Input
Cycle time out;20,00;s
Turning point RIGHT;YMAX
Turning point LEFT;NONE
Cut curve at;NONE










Evaluation settings
Capture only first NOK-EO for statistics;False
Hysteresis-X;0,0;%
Hysteresis-Y;100,0;%






Trigger Y settings
Threshold;1,8;kN
Value X at TRIGGER Y;0,00;mm
Approach from;BELOW






Block settings
Value X at block;XMAX
Block at;0,00;mm







Measuring curve
Number of measuring points;286
Ref. Graph on;ABSOLUTE
Curve segments;0;285;284;286;


Time;X(ABSOLUTE);Y;X (ABSOLUTE)


s;mm;kN;mm
0,0000;0,03809;-0,03646;0,03809
0,1186;0,43977;-0,03642;0,43977
0,1217;0,86136;-0,03642;0,86136
0,1240;1,29854;-0,03641;1,29854
0,1257;1,70977;-0,03641;1,70977
0,1272;2,13497;-0,03640;2,13497
0,1285;2,54806;-0,03639;2,54806
0,1298;2,99153;-0,03638;2,99153
0,1311;3,45607;-0,03638;3,45607
0,1323;3,86404;-0,03637;3,86404
0,1334;4,27596;-0,03635;4,27596
0,1345;4,68847;-0,03635;4,68847
0,1356;5,09865;-0,03634;5,09865
0,1368;5,50418;-0,03634;5,50418
0,1381;5,96930;-0,03632;5,96930
0,1394;6,42394;-0,03629;6,42394
0,1407;6,86788;-0,03629;6,86788
0,1420;7,30215;-0,03627;7,30215
0,1433;7,72839;-0,03623;7,72839
0,1447;8,14858;-0,03621;8,14858
0,1460;8,56400;-0,03621;8,56400
0,1473;8,97605;-0,03617;8,97605
0,1486;9,38634;-0,03613;9,38634
0,1499;9,79594;-0,03613;9,79594
0,1512;10,20636;-0,03609;10,20636
0,1525;10,61840;-0,03604;10,61840
0,1539;11,03265;-0,03604;11,03265
0,1552;11,44935;-0,03598;11,44935
0,1565;11,86838;-0,03593;11,86838
0,1578;12,28927;-0,03586;12,28927
0,1591;12,71179;-0,03586;12,71179
0,1604;13,13524;-0,03580;13,13524
0,1617;13,55915;-0,03572;13,55915
0,1631;13,98260;-0,03572;13,98260
0,1644;14,40524;-0,03565;14,40524
0,1657;14,82624;-0,03557;14,82624
0,1670;15,24480;-0,03557;15,24480
0,1683;15,66045;-0,03547;15,66045
0,1696;16,07238;-0,03538;16,07238
0,1709;16,48047;-0,03529;16,48047
0,1723;16,88401;-0,03529;16,88401
0,1738;17,33970;-0,03518;17,33970
0,1753;17,78911;-0,03507;17,78911
0,1768;18,23235;-0,03496;18,23235
0,1783;18,66930;-0,03496;18,66930
0,1798;19,10008;-0,03484;19,10008
0,1813;19,52470;-0,03471;19,52470
0,1828;19,94326;-0,03458;19,94326
0,1843;20,35588;-0,03444;20,35588
0,1858;20,76304;-0,03444;20,76304
0,1873;21,16472;-0,03429;21,16472
0,1890;21,61063;-0,03414;21,61063
0,1907;22,05026;-0,03398;22,05026
0,1923;22,48384;-0,03382;22,48384
0,1940;22,91160;-0,03365;22,91160
0,1957;23,33330;-0,03348;23,33330
0,1974;23,74930;-0,03329;23,74930
0,1991;24,15960;-0,03311;24,15960
0,2008;24,56454;-0,03311;24,56454
0,2027;25,00848;-0,03291;25,00848
0,2045;25,44636;-0,03272;25,44636
0,2064;25,87842;-0,03250;25,87842
0,2083;26,30501;-0,03229;26,30501
0,2102;26,72625;-0,03208;26,72625
0,2121;27,14260;-0,03185;27,14260
0,2139;27,55488;-0,03161;27,55488
0,2158;27,96343;-0,03138;27,96343
0,2177;28,36895;-0,03113;28,36895
0,2196;28,77192;-0,03088;28,77192
0,2214;29,17255;-0,03063;29,17255
0,2235;29,61079;-0,03010;29,61079
0,2256;30,04669;-0,02983;30,04669
0,2276;30,48073;-0,02954;30,48073
0,2297;30,91349;-0,02925;30,91349
0,2318;31,34509;-0,02897;31,34509
0,2338;31,77588;-0,02866;31,77588
0,2359;32,20608;-0,02836;32,20608
0,2380;32,63581;-0,02805;32,63581
0,2400;33,06531;-0,02773;33,06531
0,2421;33,49493;-0,02740;33,49493
0,2442;33,92490;-0,02674;33,92490
0,2462;34,35533;-0,02639;34,35533
0,2483;34,78635;-0,02605;34,78635
0,2504;35,21783;-0,02569;35,21783
0,2524;35,64978;-0,02534;35,64978
0,2545;36,08219;-0,02497;36,08219
0,2565;36,51530;-0,02460;36,51530
0,2586;36,94946;-0,02422;36,94946
0,2607;37,38466;-0,02384;37,38466
0,2627;37,82080;-0,02345;37,82080
0,2648;38,25799;-0,02265;38,25799
0,2669;38,69610;-0,02225;38,69610
0,2689;39,13538;-0,02184;39,13538
0,2708;39,53590;-0,02142;39,53590
0,2727;39,93759;-0,02100;39,93759
0,2746;40,34043;-0,02057;40,34043
0,2764;40,74421;-0,02014;40,74421
0,2783;41,14881;-0,01970;41,14881
0,2802;41,55387;-0,01926;41,55387
0,2821;41,95916;-0,01880;41,95916
0,2840;42,36468;-0,01835;42,36468
0,2858;42,77032;-0,01790;42,77032
0,2877;43,17585;-0,01743;43,17585
0,2896;43,58114;-0,01696;43,58114
0,2915;43,98620;-0,01649;43,98620
0,2933;44,39068;-0,01601;44,39068
0,2952;44,79446;-0,01553;44,79446
0,2971;45,19742;-0,01504;45,19742
0,2990;45,59934;-0,01455;45,59934
0,3009;46,00032;-0,01405;46,00032
0,3029;46,43995;-0,01355;46,43995
0,3050;46,87783;-0,01305;46,87783
0,3070;47,31362;-0,01254;47,31362
0,3091;47,74720;-0,01202;47,74720
0,3112;48,17856;-0,01151;48,17856
0,3132;48,60772;-0,01098;48,60772
0,3153;49,03489;-0,01045;49,03489
0,3174;49,45985;-0,00940;49,45985
0,3194;49,88272;-0,00886;49,88272
0,3215;50,30338;-0,00832;50,30338
0,3236;50,72171;-0,00777;50,72171
0,3256;51,13794;-0,00722;51,13794
0,3277;51,55219;-0,00668;51,55219
0,3298;51,96470;-0,00612;51,96470
0,3318;52,37546;-0,00557;52,37546
0,3339;52,78471;-0,00500;52,78471
0,3360;53,19198;-0,00445;53,19198
0,3380;53,59751;-0,00331;53,59751
0,3401;54,00106;-0,00274;54,00106
0,3422;54,40297;-0,00217;54,40297
0,3442;54,80326;-0,00159;54,80326
0,3465;55,23835;-0,00101;55,23835
0,3487;55,67181;-0,00043;55,67181
0,3510;56,10364;0,00015;56,10364
0,3532;56,53361;0,00132;56,53361
0,3555;56,96171;0,00191;56,96171
0,3577;57,38772;0,00250;57,38772
0,3600;57,81210;0,00309;57,81210
0,3622;58,23497;0,00369;58,23497
0,3645;58,65668;0,00488;58,65668
0,3668;59,07710;0,00548;59,07710
0,3690;59,49659;0,00608;59,49659
0,3713;59,91492;0,00667;59,91492
0,3735;60,33220;0,00727;60,33220
0,3758;60,74855;0,00849;60,74855
0,3780;61,16397;0,00909;61,16397
0,3803;61,57834;0,00969;61,57834
0,3825;61,99155;0,01030;61,99155
0,3848;62,40359;0,01090;62,40359
0,3870;62,81447;0,01211;62,81447
0,3893;63,22430;0,01273;63,22430
0,3915;63,63308;0,01334;63,63308
0,3938;64,04094;0,01394;64,04094
0,3960;64,44809;0,01455;64,44809
0,3983;64,85443;0,01576;64,85443
0,4005;65,25984;0,01637;65,25984
0,4028;65,66432;0,01697;65,66432
0,4051;66,06751;0,01759;66,06751
0,4073;66,46978;0,01820;66,46978
0,4096;66,87100;0,01941;66,87100
0,4118;67,27152;0,02001;67,27152
0,4142;67,70474;0,02061;67,70474
0,4167;68,13762;0,02122;68,13762
0,4191;68,57027;0,02243;68,57027
0,4216;69,00280;0,02303;69,00280
0,4240;69,43533;0,02363;69,43533
0,4265;69,86774;0,02482;69,86774
0,4289;70,29980;0,02543;70,29980
0,4313;70,73163;0,02602;70,73163
0,4338;71,16276;0,02721;71,16276
0,4362;71,59296;0,02781;71,59296
0,4387;72,02200;0,02840;72,02200
0,4411;72,45011;0,02899;72,45011
0,4435;72,87716;0,03017;72,87716
0,4460;73,30352;0,03075;73,30352
0,4484;73,72930;0,03133;73,72930
0,4509;74,15461;0,03249;74,15461
0,4533;74,57900;0,03307;74,57900
0,4557;75,00256;0,03365;75,00256
0,4582;75,42508;0,03479;75,42508
0,4606;75,84667;0,03537;75,84667
0,4631;76,26732;0,03593;76,26732
0,4655;76,68705;0,03650;76,68705
0,4679;77,10573;0,03763;77,10573
0,4704;77,52347;0,03818;77,52347
0,4728;77,93971;0,03875;77,93971
0,4753;78,35466;0,03986;78,35466
0,4777;78,76798;0,04040;78,76798
0,4801;79,17956;0,04095;79,17956
0,4826;79,58951;0,04204;79,58951
0,4850;79,99759;0,04259;79,99759
0,4875;80,40417;0,04313;80,40417
0,4899;80,80888;0,04366;80,80888
0,4923;81,21161;0,04473;81,21161
0,4948;81,61224;0,04525;81,61224
0,4974;82,04175;0,04578;82,04175
0,5000;82,46927;0,04683;82,46927
0,5027;82,89551;0,04735;82,89551
0,5053;83,32059;0,04837;83,32059
0,5079;83,74451;0,04888;83,74451
0,5106;84,16749;0,04939;84,16749
0,5132;84,58931;0,05040;84,58931
0,5158;85,00985;0,05090;85,00985
0,5184;85,42888;0,05189;85,42888
0,5211;85,84674;0,05238;85,84674
0,5237;86,26367;0,05286;86,26367
0,5263;86,67967;0,05384;86,67967
0,5290;87,09486;0,05432;87,09486
0,5316;87,50888;0,05526;87,50888
0,5342;87,92186;0,05573;87,92186
0,5368;88,33343;0,05621;88,33343
0,5395;88,74385;0,05713;88,74385
0,5421;89,15321;0,05759;89,15321
0,5447;89,56188;0,05850;89,56188
0,5474;89,96997;0,05895;89,96997
0,5500;90,37735;0,05940;90,37735
0,5526;90,78392;0,06029;90,78392
0,5552;91,18945;0,06073;91,18945
0,5579;91,59404;0,06160;91,59404
0,5605;91,99794;0,06203;91,99794
0,5631;92,40090;0,06245;92,40090
0,5658;92,80317;0,06331;92,80317
0,5684;93,20450;0,06372;93,20450
0,5710;93,60467;0,06456;93,60467
0,5738;94,03220;0,06496;94,03220
0,5766;94,45867;0,06578;94,45867
0,5795;94,88433;0,06618;94,88433
0,5823;95,30930;0,06698;95,30930
0,5851;95,73356;0,06737;95,73356
0,5879;96,15678;0,06815;96,15678
0,5907;96,57872;0,06854;96,57872
0,5935;96,99926;0,06930;96,99926
0,5964;97,41875;0,06967;97,41875
0,5992;97,83731;0,07042;97,83731
0,6020;98,25494;0,07079;98,25494
0,6048;98,67175;0,07153;98,67175
0,6076;99,08741;0,07189;99,08741
0,6104;99,50131;0,07260;99,50131
0,6133;99,91394;0,07296;99,91394
0,6161;100,32540;0,07365;100,32540
0,6189;100,73639;0,07401;100,73639
0,6217;101,14681;0,07469;101,14681
0,6245;101,55675;0,07502;101,55675
0,6273;101,96635;0,07570;101,96635
0,6302;102,37560;0,07602;102,37560
0,6330;102,78462;0,07668;102,78462
0,6358;103,19340;0,07701;103,19340
0,6386;103,60184;0,07765;103,60184
0,6414;104,01004;0,07797;104,01004
0,6442;104,41801;0,07860;104,41801
0,6470;104,82575;0,07890;104,82575
0,6499;105,23337;0,07952;105,23337
0,6527;105,64029;0,07982;105,64029
0,6555;106,04651;0,08042;106,04651
0,6583;106,45122;0,08072;106,45122
0,6611;106,85244;0,08131;106,85244
0,6641;107,27309;0,08160;107,27309
0,6671;107,68165;0,08218;107,68165
0,6703;108,09834;0,08274;108,09834
0,6737;108,51330;0,08303;108,51330
0,6775;108,93174;0,08359;108,93174
0,6818;109,34029;0,08442;109,34029
0,6876;109,74396;0,08524;109,74396
0,7347;110,14424;0,09230;110,14424
0,7584;110,54953;0,09653;110,54953
0,7661;110,95553;0,09860;110,95553
0,7719;111,35570;0,09995;111,35570
0,7772;111,76087;0,10091;111,76087
0,7822;112,16709;0,10242;112,16709
0,7877;112,56994;0,10402;112,56994
0,7965;112,97430;0,10694;112,97430
1,2732;113,38274;0,66237;113,38274
1,2786;113,78954;0,66827;113,78954
1,2829;114,19903;0,67215;114,19903
1,2872;114,61014;0,67598;114,61014
1,2917;115,02230;0,68165;115,02230
1,2970;115,43120;0,68540;115,43120
1,3066;115,83207;0,69465;115,83207
1,4851;116,02715;1,30334;116,02715
1,5471;116,04554;1,91898;116,04554
1,5940;116,05764;2,52412;116,05764
1,6353;116,06940;3,12544;116,06940
1,6747;116,07929;3,73370;116,07929
1,7142;116,08662;4,35325;116,08662
1,7311;116,08965;4,61756;116,08965
1,7322;116,09000;4,61756;116,09000
