Part protocol
Network name;Part_OP10_MP-001_2020-08-25_16-09-15_0006_OK.csv
Protocol version;2.01.00

Index;Result information;Process values - curve related;Process values - EO related;Evaluation objects settings;Switch signal settings;Device information;Channel-X settings;Channel-Y settings;Cycle control settings;Evaluation settings;Trigger Y settings;Block settings;Measuring curve;Measuring points;Sequence;
Line;10;30;40;70;100;120;150;190;220;240;250;260;270;280;600;



Result information
Date;2020/08/25
Time;16:09:15
Cycle number;6
Total result;OK
Triggered switch signals
Part serial number;0006
Measuring program name;D57-Left
Measuring program number;1
Zero X offset;0,00;mm
Tara Y offset;0,0;kN









Process values - curve related
Block X;126,31;mm;XMIN-X;-0,17;mm
Block Y;7,6;kN;XMIN-Y;0,0;kN
Ref X;-;mm;XMAX-X;126,31;mm
Peak-peak X;126,47;mm;XMAX-Y;7,6;kN
Peak-peak Y;7,6;kN;YMIN-X;0,25;mm
;;;YMIN-Y;0,0;kN
;;;YMAX-X;126,31;mm
;;;YMAX-Y;7,6;kN

Process values - EO related;Result;Entry;Exit;XMIN-X;XMIN-Y;XMAX-X;XMAX-Y;YMIN-Y;YMIN-X;YMAX-Y;YMAX-X
;;;;mm;kN;mm;kN;kN;mm;kN;mm
EO-01;OK;0,7;0,8;;;;;0,7;124,50;0,8;125,46;;;;;;
EO-02;OK;126,27;126,28;126,27;4,5;126,27;5,1;;;;;;;;;;
EO-03;None;
EO-04;None;
























Evaluation objects settings;Reaction;X reference;Y-Reference;XMin;XMax;YMin;YMax;Entry;Exit;Curve part;Catch zone X;Catch zone Y
EO-01;UNI-BOX;ABSOLUTE;-;124,50;125,70;0,5;3,0;LEFT;RIGHT;ANY;+50%;+50%
EO-02;UNI-BOX;ABSOLUTE;-;125,80;127,20;4,5;5,5;BELOW;ABOVE;ANY;+50%;+50%
EO-03;OFF
EO-04;OFF

























Switch signal settings;Channel;Threshold at;;Trigger from;Reference;Latch until
Type S1;OFF
Type S2;OFF

















Device information
Device type;maXYmos BL
Device type number;5867B1011
Device serial number;5182443
Firmware version;2.3.2 (r22473-BL_v2.3.x)
-
-
-
-
-
IP Address;10.0.0.18
Network name;OP10
Profibus address;10
-
-
-
Station name;OP10
Company name;
Comment;











Channel-X settings
Use the settings from global setup;True
Sensor-X type;Â±10V
Unit;mm
Used range from;0,00;mm
Used range to;200,00;mm
Decimal places;XXXX.XX
Scaling by;Teach-In
Point 1;0,00;mm;-0,350;%
Point 2;200,00;mm;10,000;%
Invert signal;FALSE
Filter;20 Hz
Test point;0,00;mm
Tolerance;2,00;mm
Enable sensor test by dig-input;FALSE
Zoom from;110,00;mm
Zoom to;133,11;mm























Channel-Y settings
Use the settings from global setup;True
Sensor-Y type;Strain Gage
Unit;kN
Used range from;0,0;kN
Used range to;20,0;kN
Decimal places;XXXXX.X
Scaling by;Teach-In
Point 1;0,0;kN;-0,01562;%
Point 2;20,0;kN;2,00000;%
Invert signal;FALSE
Filter;1 Hz
Piezo reset;-
Test point;0,0;kN
Tolerance;0,1;kN
Enable sensor test by dig-input;FALSE
Zoom from;0,0;kN
Zoom to;6,0;kN












Cycle control settings
Use the settings from global setup;True
Measuring function;Y (X)
Delta-X;Automatic
START condition;Dig-Input
STOP condition;Dig-Input
Cycle time out;20,00;s
Turning point RIGHT;YMAX
Turning point LEFT;NONE
Cut curve at;NONE










Evaluation settings
Capture only first NOK-EO for statistics;False
Hysteresis-X;0,0;%
Hysteresis-Y;100,0;%






Trigger Y settings
Threshold;1,9;kN
Value X at TRIGGER Y;0,00;mm
Approach from;BELOW






Block settings
Value X at block;XMAX
Block at;0,00;mm







Measuring curve
Number of measuring points;316
Ref. Graph on;ABSOLUTE
Curve segments;0;316;315;316;


Time;X(ABSOLUTE);Y;X (ABSOLUTE)


s;mm;kN;mm
0,0000;-0,16607;-0,04469;-0,16607
0,0882;0,24504;-0,04472;0,24504
0,0922;0,66500;-0,04472;0,66500
0,0950;1,08472;-0,04472;1,08472
0,0972;1,49502;-0,04472;1,49502
0,0993;1,92988;-0,04472;1,92988
0,1012;2,37370;-0,04472;2,37370
0,1029;2,81263;-0,04471;2,81263
0,1044;3,23375;-0,04471;3,23375
0,1059;3,68350;-0,04471;3,68350
0,1072;4,10055;-0,04471;4,10055
0,1085;4,53960;-0,04470;4,53960
0,1098;4,99971;-0,04470;4,99971
0,1110;5,40873;-0,04470;5,40873
0,1121;5,82776;-0,04469;5,82776
0,1132;6,25237;-0,04469;6,25237
0,1143;6,67745;-0,04469;6,67745
0,1155;7,09776;-0,04469;7,09776
0,1166;7,50945;-0,04469;7,50945
0,1177;7,90951;-0,04468;7,90951
0,1190;8,35973;-0,04467;8,35973
0,1203;8,79098;-0,04467;8,79098
0,1217;9,20302;-0,04466;9,20302
0,1232;9,65033;-0,04465;9,65033
0,1247;10,07273;-0,04463;10,07273
0,1263;10,52028;-0,04463;10,52028
0,1280;10,94326;-0,04462;10,94326
0,1297;11,34913;-0,04460;11,34913
0,1316;11,78841;-0,04458;11,78841
0,1335;12,22222;-0,04457;12,22222
0,1354;12,65394;-0,04455;12,65394
0,1372;13,08623;-0,04453;13,08623
0,1391;13,52249;-0,04450;13,52249
0,1410;13,96561;-0,04447;13,96561
0,1427;14,37113;-0,04444;14,37113
0,1444;14,78213;-0,04442;14,78213
0,1461;15,19720;-0,04438;15,19720
0,1478;15,61576;-0,04435;15,61576
0,1494;16,03816;-0,04432;16,03816
0,1511;16,46487;-0,04428;16,46487
0,1528;16,89519;-0,04423;16,89519
0,1545;17,32795;-0,04423;17,32795
0,1562;17,76246;-0,04419;17,76246
0,1579;18,19871;-0,04415;18,19871
0,1596;18,63741;-0,04410;18,63741
0,1613;19,07855;-0,04405;19,07855
0,1630;19,52179;-0,04399;19,52179
0,1646;19,96619;-0,04394;19,96619
0,1663;20,41129;-0,04388;20,41129
0,1680;20,85755;-0,04382;20,85755
0,1697;21,30603;-0,04376;21,30603
0,1712;21,70643;-0,04376;21,70643
0,1727;22,10823;-0,04370;22,10823
0,1742;22,51073;-0,04363;22,51073
0,1757;22,91334;-0,04357;22,91334
0,1772;23,31654;-0,04349;23,31654
0,1787;23,72067;-0,04349;23,72067
0,1802;24,12619;-0,04342;24,12619
0,1817;24,53311;-0,04333;24,53311
0,1832;24,94085;-0,04326;24,94085
0,1847;25,34870;-0,04318;25,34870
0,1862;25,75644;-0,04318;25,75644
0,1877;26,16406;-0,04309;26,16406
0,1892;26,57226;-0,04300;26,57226
0,1907;26,98104;-0,04292;26,98104
0,1922;27,39018;-0,04282;27,39018
0,1937;27,79896;-0,04282;27,79896
0,1953;28,20670;-0,04272;28,20670
0,1968;28,61315;-0,04263;28,61315
0,1983;29,01856;-0,04253;29,01856
0,1998;29,42304;-0,04243;29,42304
0,2013;29,82670;-0,04243;29,82670
0,2028;30,22897;-0,04232;30,22897
0,2043;30,62949;-0,04221;30,62949
0,2060;31,07750;-0,04210;31,07750
0,2076;31,52271;-0,04199;31,52271
0,2093;31,96560;-0,04188;31,96560
0,2110;32,40628;-0,04177;32,40628
0,2127;32,84451;-0,04177;32,84451
0,2144;33,27983;-0,04165;33,27983
0,2161;33,71201;-0,04153;33,71201
0,2178;34,14128;-0,04141;34,14128
0,2195;34,56776;-0,04128;34,56776
0,2212;34,99179;-0,04116;34,99179
0,2228;35,41291;-0,04103;35,41291
0,2245;35,83101;-0,04090;35,83101
0,2262;36,24596;-0,04077;36,24596
0,2279;36,65812;-0,04063;36,65812
0,2296;37,06772;-0,04063;37,06772
0,2313;37,47487;-0,04050;37,47487
0,2330;37,87947;-0,04036;37,87947
0,2347;38,28115;-0,04022;38,28115
0,2366;38,72427;-0,04008;38,72427
0,2384;39,16460;-0,03995;39,16460
0,2403;39,60213;-0,03980;39,60213
0,2422;40,03710;-0,03966;40,03710
0,2441;40,46940;-0,03951;40,46940
0,2459;40,89937;-0,03936;40,89937
0,2478;41,32724;-0,03921;41,32724
0,2497;41,75302;-0,03907;41,75302
0,2516;42,17682;-0,03892;42,17682
0,2534;42,59864;-0,03876;42,59864
0,2553;43,01848;-0,03861;43,01848
0,2572;43,43681;-0,03846;43,43681
0,2591;43,85362;-0,03830;43,85362
0,2610;44,26881;-0,03814;44,26881
0,2628;44,68225;-0,03798;44,68225
0,2647;45,09406;-0,03783;45,09406
0,2666;45,50436;-0,03767;45,50436
0,2685;45,91314;-0,03751;45,91314
0,2703;46,32041;-0,03735;46,32041
0,2722;46,72629;-0,03719;46,72629
0,2741;47,13053;-0,03703;47,13053
0,2760;47,53326;-0,03686;47,53326
0,2779;47,93413;-0,03670;47,93413
0,2799;48,37306;-0,03654;48,37306
0,2820;48,81013;-0,03637;48,81013
0,2841;49,24568;-0,03621;49,24568
0,2861;49,67973;-0,03587;49,67973
0,2882;50,11249;-0,03571;50,11249
0,2902;50,54397;-0,03554;50,54397
0,2923;50,97440;-0,03537;50,97440
0,2944;51,40402;-0,03521;51,40402
0,2964;51,83282;-0,03504;51,83282
0,2985;52,26081;-0,03487;52,26081
0,3006;52,68822;-0,03471;52,68822
0,3026;53,11505;-0,03453;53,11505
0,3047;53,54129;-0,03436;53,54129
0,3068;53,96660;-0,03403;53,96660
0,3088;54,39110;-0,03385;54,39110
0,3109;54,81467;-0,03369;54,81467
0,3130;55,23753;-0,03351;55,23753
0,3150;55,65959;-0,03335;55,65959
0,3171;56,08071;-0,03318;56,08071
0,3192;56,50067;-0,03300;56,50067
0,3212;56,91969;-0,03284;56,91969
0,3233;57,33779;-0,03266;57,33779
0,3254;57,75484;-0,03249;57,75484
0,3274;58,17095;-0,03215;58,17095
0,3295;58,58614;-0,03199;58,58614
0,3315;59,00039;-0,03181;59,00039
0,3336;59,41360;-0,03164;59,41360
0,3357;59,82576;-0,03147;59,82576
0,3377;60,23687;-0,03130;60,23687
0,3398;60,64682;-0,03113;60,64682
0,3419;61,05560;-0,03096;61,05560
0,3439;61,46311;-0,03079;61,46311
0,3460;61,86933;-0,03062;61,86933
0,3481;62,27416;-0,03028;62,27416
0,3501;62,67770;-0,03011;62,67770
0,3522;63,08020;-0,02994;63,08020
0,3543;63,48142;-0,02977;63,48142
0,3563;63,88171;-0,02960;63,88171
0,3586;64,31738;-0,02943;64,31738
0,3608;64,75189;-0,02926;64,75189
0,3631;65,18500;-0,02892;65,18500
0,3653;65,61683;-0,02875;65,61683
0,3676;66,04680;-0,02859;66,04680
0,3698;66,47502;-0,02842;66,47502
0,3721;66,90161;-0,02825;66,90161
0,3744;67,32692;-0,02792;67,32692
0,3766;67,75119;-0,02775;67,75119
0,3789;68,17452;-0,02759;68,17452
0,3811;68,59681;-0,02742;68,59681
0,3834;69,01804;-0,02725;69,01804
0,3856;69,43789;-0,02692;69,43789
0,3879;69,85645;-0,02675;69,85645
0,3901;70,27373;-0,02659;70,27373
0,3924;70,68973;-0,02643;70,68973
0,3946;71,10456;-0,02626;71,10456
0,3969;71,51835;-0,02593;71,51835
0,3991;71,93121;-0,02577;71,93121
0,4014;72,34314;-0,02561;72,34314
0,4036;72,75413;-0,02544;72,75413
0,4059;73,16397;-0,02528;73,16397
0,4081;73,57298;-0,02496;73,57298
0,4104;73,98118;-0,02479;73,98118
0,4127;74,38869;-0,02464;74,38869
0,4149;74,79573;-0,02447;74,79573
0,4172;75,20230;-0,02431;75,20230
0,4194;75,60829;-0,02399;75,60829
0,4217;76,01358;-0,02383;76,01358
0,4239;76,41817;-0,02367;76,41817
0,4262;76,82184;-0,02351;76,82184
0,4284;77,22445;-0,02335;77,22445
0,4307;77,62590;-0,02303;77,62590
0,4329;78,02619;-0,02288;78,02619
0,4354;78,45872;-0,02272;78,45872
0,4378;78,89008;-0,02256;78,89008
0,4403;79,32052;-0,02225;79,32052
0,4427;79,74979;-0,02209;79,74979
0,4451;80,17778;-0,02193;80,17778
0,4476;80,60425;-0,02162;80,60425
0,4500;81,02887;-0,02146;81,02887
0,4525;81,45173;-0,02130;81,45173
0,4549;81,87274;-0,02115;81,87274
0,4573;82,29223;-0,02084;82,29223
0,4598;82,71033;-0,02068;82,71033
0,4622;83,12714;-0,02053;83,12714
0,4647;83,54233;-0,02022;83,54233
0,4671;83,95588;-0,02007;83,95588
0,4695;84,36758;-0,01991;84,36758
0,4720;84,77729;-0,01961;84,77729
0,4744;85,18503;-0,01945;85,18503
0,4769;85,59125;-0,01930;85,59125
0,4793;85,99619;-0,01915;85,99619
0,4817;86,39997;-0,01884;86,39997
0,4842;86,80259;-0,01869;86,80259
0,4866;87,20392;-0,01853;87,20392
0,4893;87,63436;-0,01824;87,63436
0,4919;88,06293;-0,01808;88,06293
0,4945;88,48964;-0,01778;88,48964
0,4971;88,91507;-0,01763;88,91507
0,4998;89,33910;-0,01748;89,33910
0,5024;89,76208;-0,01718;89,76208
0,5050;90,18379;-0,01703;90,18379
0,5077;90,60398;-0,01673;90,60398
0,5103;91,02277;-0,01658;91,02277
0,5129;91,44028;-0,01643;91,44028
0,5155;91,85663;-0,01613;91,85663
0,5182;92,27194;-0,01598;92,27194
0,5208;92,68642;-0,01568;92,68642
0,5234;93,10033;-0,01554;93,10033
0,5260;93,51354;-0,01539;93,51354
0,5287;93,92604;-0,01509;93,92604
0,5313;94,33797;-0,01494;94,33797
0,5339;94,74932;-0,01465;94,74932
0,5366;95,16008;-0,01450;95,16008
0,5392;95,57014;-0,01435;95,57014
0,5418;95,97986;-0,01405;95,97986
0,5444;96,38911;-0,01391;96,38911
0,5471;96,79801;-0,01362;96,79801
0,5497;97,20679;-0,01347;97,20679
0,5523;97,61523;-0,01332;97,61523
0,5550;98,02319;-0,01303;98,02319
0,5576;98,43047;-0,01288;98,43047
0,5602;98,83692;-0,01259;98,83692
0,5628;99,24233;-0,01244;99,24233
0,5655;99,64669;-0,01230;99,64669
0,5681;100,05000;-0,01200;100,05000
0,5707;100,45227;-0,01185;100,45227
0,5734;100,85337;-0,01156;100,85337
0,5762;101,28183;-0,01142;101,28183
0,5790;101,70888;-0,01112;101,70888
0,5818;102,13443;-0,01098;102,13443
0,5846;102,55834;-0,01068;102,55834
0,5874;102,98028;-0,01054;102,98028
0,5903;103,39849;-0,01025;103,39849
0,5931;103,81030;-0,01010;103,81030
0,5959;104,21420;-0,00981;104,21420
0,5989;104,63555;-0,00967;104,63555
0,6019;105,04864;-0,00937;105,04864
0,6049;105,45626;-0,00922;105,45626
0,6079;105,85934;-0,00894;105,85934
0,6111;106,28279;-0,00864;106,28279
0,6143;106,70101;-0,00850;106,70101
0,6175;107,11352;-0,00820;107,11352
0,6207;107,51951;-0,00791;107,51951
0,6240;107,94098;-0,00761;107,94098
0,6274;108,35360;-0,00746;108,35360
0,6308;108,75901;-0,00717;108,75901
0,6342;109,16000;-0,00687;109,16000
0,6378;109,58158;-0,00657;109,58158
0,6411;109,98222;-0,00626;109,98222
0,6445;110,38600;-0,00611;110,38600
0,6479;110,79397;-0,00581;110,79397
0,6513;111,20776;-0,00549;111,20776
0,6547;111,62865;-0,00518;111,62865
0,6578;112,03417;-0,00485;112,03417
0,6610;112,44947;-0,00470;112,44947
0,6640;112,85022;-0,00437;112,85022
0,6670;113,26064;-0,00421;113,26064
0,6700;113,68060;-0,00387;113,68060
0,6729;114,08205;-0,00353;114,08205
0,6757;114,48955;-0,00336;114,48955
0,6785;114,89996;-0,00301;114,89996
0,6813;115,30991;-0,00284;115,30991
0,6841;115,71648;-0,00248;115,71648
0,6869;116,11817;-0,00231;116,11817
0,6899;116,53929;-0,00195;116,53929
0,6930;116,95168;-0,00176;116,95168
0,6960;117,35674;-0,00139;117,35674
0,6991;117,77100;-0,00100;117,77100
0,7029;118,18828;-0,00061;118,18828
0,7083;118,58915;-0,00022;118,58915
1,2473;118,96674;0,60082;118,96674
1,2781;119,37366;0,63835;119,37366
1,2834;119,77918;0,64507;119,77918
1,2881;120,19204;0,64950;120,19204
1,2926;120,59640;0,65609;120,59640
1,2979;121,00297;0,66046;121,00297
1,3055;121,40338;0,67130;121,40338
1,3176;121,80727;0,68432;121,80727
1,3262;122,21757;0,69538;122,21757
1,3330;122,62856;0,70217;122,62856
1,3393;123,03071;0,71146;123,03071
1,3463;123,43740;0,71867;123,43740
1,3545;123,83839;0,73123;123,83839
1,3626;124,24275;0,74183;124,24275
1,3703;124,65025;0,75299;124,65025
1,3767;125,05659;0,76177;125,05659
1,3831;125,46386;0,77401;125,46386
1,3906;125,86461;0,78694;125,86461
1,5684;126,17469;1,39433;126,17469
1,6585;126,20903;1,99766;126,20903
1,7280;126,22428;2,60334;126,22428
1,7880;126,24151;3,20984;126,24151
1,8444;126,25338;3,82562;126,25338
1,8988;126,26467;4,44191;126,26467
1,9533;126,27421;5,05906;126,27421
2,0077;126,28096;5,66114;126,28096
2,0659;126,28981;6,27541;126,28981
2,1279;126,29761;6,88720;126,29761
2,1954;126,30634;7,50052;126,30634
2,2063;126,30692;7,58118;126,30692
2,2067;126,30692;7,59719;126,30692
