Part protocol
Network name;Part_OP10_MP-002_2020-08-26_16-03-29_0035_OK.csv
Protocol version;2.01.00

Index;Result information;Process values - curve related;Process values - EO related;Evaluation objects settings;Switch signal settings;Device information;Channel-X settings;Channel-Y settings;Cycle control settings;Evaluation settings;Trigger Y settings;Block settings;Measuring curve;Measuring points;Sequence;
Line;10;30;40;70;100;120;150;190;220;240;250;260;270;280;570;



Result information
Date;2020/08/26
Time;16:03:29
Cycle number;35
Total result;OK
Triggered switch signals
Part serial number;0035
Measuring program name;D57-Right
Measuring program number;2
Zero X offset;0,00;mm
Tara Y offset;0,0;kN









Process values - curve related
Block X;116,11;mm;XMIN-X;-0,07;mm
Block Y;5,0;kN;XMIN-Y;0,0;kN
Ref X;-;mm;XMAX-X;116,11;mm
Peak-peak X;116,18;mm;XMAX-Y;5,0;kN
Peak-peak Y;5,0;kN;YMIN-X;0,33;mm
;;;YMIN-Y;0,0;kN
;;;YMAX-X;116,11;mm
;;;YMAX-Y;5,0;kN

Process values - EO related;Result;Entry;Exit;XMIN-X;XMIN-Y;XMAX-X;XMAX-Y;YMIN-Y;YMIN-X;YMAX-Y;YMAX-X
;;;;mm;kN;mm;kN;kN;mm;kN;mm
EO-01;OK;0,7;0,7;;;;;0,7;115,00;0,7;115,35;;;;;;
EO-02;OK;;116,08;116,06;2,3;116,08;3,1;2,3;116,06;;;;;;;;
EO-03;None;
EO-04;None;
























Evaluation objects settings;Reaction;X reference;Y-Reference;XMin;XMax;YMin;YMax;Entry;Exit;Curve part;Catch zone X;Catch zone Y
EO-01;UNI-BOX;ABSOLUTE;-;115,00;115,50;0,4;2,0;LEFT;RIGHT;ANY;+50%;+50%
EO-02;UNI-BOX;ABSOLUTE;-;115,40;117,10;2,3;3,3;ANY;ABOVE;ANY;+50%;+50%
EO-03;OFF
EO-04;OFF

























Switch signal settings;Channel;Threshold at;;Trigger from;Reference;Latch until
Type S1;OFF
Type S2;OFF

















Device information
Device type;maXYmos BL
Device type number;5867B1011
Device serial number;5182443
Firmware version;2.3.2 (r22473-BL_v2.3.x)
-
-
-
-
-
IP Address;10.0.0.18
Network name;OP10
Profibus address;10
-
-
-
Station name;OP10
Company name;
Comment;











Channel-X settings
Use the settings from global setup;True
Sensor-X type;Â±10V
Unit;mm
Used range from;0,00;mm
Used range to;200,00;mm
Decimal places;XXXX.XX
Scaling by;Teach-In
Point 1;0,00;mm;-0,350;%
Point 2;200,00;mm;10,000;%
Invert signal;FALSE
Filter;20 Hz
Test point;0,00;mm
Tolerance;2,00;mm
Enable sensor test by dig-input;FALSE
Zoom from;100,00;mm
Zoom to;120,00;mm























Channel-Y settings
Use the settings from global setup;True
Sensor-Y type;Strain Gage
Unit;kN
Used range from;0,0;kN
Used range to;20,0;kN
Decimal places;XXXXX.X
Scaling by;Teach-In
Point 1;0,0;kN;-0,01562;%
Point 2;20,0;kN;2,00000;%
Invert signal;FALSE
Filter;1 Hz
Piezo reset;-
Test point;0,0;kN
Tolerance;0,1;kN
Enable sensor test by dig-input;FALSE
Zoom from;0,0;kN
Zoom to;5,0;kN












Cycle control settings
Use the settings from global setup;True
Measuring function;Y (X)
Delta-X;Automatic
START condition;Dig-Input
STOP condition;Dig-Input
Cycle time out;20,00;s
Turning point RIGHT;YMAX
Turning point LEFT;NONE
Cut curve at;NONE










Evaluation settings
Capture only first NOK-EO for statistics;False
Hysteresis-X;0,0;%
Hysteresis-Y;100,0;%






Trigger Y settings
Threshold;1,8;kN
Value X at TRIGGER Y;0,00;mm
Approach from;BELOW






Block settings
Value X at block;XMAX
Block at;0,00;mm







Measuring curve
Number of measuring points;287
Ref. Graph on;ABSOLUTE
Curve segments;0;286;285;287;


Time;X(ABSOLUTE);Y;X (ABSOLUTE)


s;mm;kN;mm
0,0000;-0,07156;-0,03502;-0,07156
0,1004;0,33129;-0,03510;0,33129
0,1036;0,73146;-0,03510;0,73146
0,1059;1,13349;-0,03509;1,13349
0,1078;1,54973;-0,03509;1,54973
0,1095;1,98796;-0,03509;1,98796
0,1110;2,42445;-0,03508;2,42445
0,1123;2,83649;-0,03508;2,83649
0,1136;3,26855;-0,03507;3,26855
0,1149;3,71237;-0,03506;3,71237
0,1162;4,16085;-0,03506;4,16085
0,1175;4,60886;-0,03505;4,60886
0,1188;5,05267;-0,03504;5,05267
0,1202;5,48963;-0,03502;5,48963
0,1215;5,91762;-0,03502;5,91762
0,1228;6,33501;-0,03500;6,33501
0,1241;6,74182;-0,03498;6,74182
0,1256;7,19507;-0,03498;7,19507
0,1271;7,63807;-0,03497;7,63807
0,1286;8,07293;-0,03494;8,07293
0,1301;8,50150;-0,03491;8,50150
0,1316;8,92553;-0,03488;8,92553
0,1331;9,34688;-0,03488;9,34688
0,1346;9,76731;-0,03485;9,76731
0,1361;10,18796;-0,03481;10,18796
0,1376;10,60967;-0,03476;10,60967
0,1391;11,03277;-0,03472;11,03277
0,1406;11,45692;-0,03472;11,45692
0,1421;11,88200;-0,03467;11,88200
0,1436;12,30719;-0,03461;12,30719
0,1451;12,73192;-0,03456;12,73192
0,1466;13,15549;-0,03449;13,15549
0,1481;13,57684;-0,03449;13,57684
0,1496;13,99540;-0,03442;13,99540
0,1511;14,41036;-0,03435;14,41036
0,1526;14,82124;-0,03427;14,82124
0,1541;15,22734;-0,03419;15,22734
0,1556;15,62856;-0,03419;15,62856
0,1573;16,07378;-0,03410;16,07378
0,1590;16,51213;-0,03401;16,51213
0,1607;16,94349;-0,03392;16,94349
0,1624;17,36799;-0,03382;17,36799
0,1641;17,78573;-0,03371;17,78573
0,1658;18,19696;-0,03360;18,19696
0,1675;18,60225;-0,03348;18,60225
0,1693;19,04607;-0,03336;19,04607
0,1712;19,48372;-0,03323;19,48372
0,1731;19,91602;-0,03310;19,91602
0,1750;20,34331;-0,03296;20,34331
0,1769;20,76606;-0,03281;20,76606
0,1787;21,18486;-0,03266;21,18486
0,1806;21,60004;-0,03250;21,60004
0,1825;22,01209;-0,03234;22,01209
0,1844;22,42122;-0,03217;22,42122
0,1862;22,82814;-0,03199;22,82814
0,1881;23,23297;-0,03182;23,23297
0,1900;23,63616;-0,03162;23,63616
0,1919;24,03761;-0,03144;24,03761
0,1937;24,43778;-0,03124;24,43778
0,1958;24,87718;-0,03103;24,87718
0,1979;25,31611;-0,03082;25,31611
0,1999;25,75504;-0,03061;25,75504
0,2020;26,19467;-0,03038;26,19467
0,2039;26,59496;-0,03015;26,59496
0,2058;26,99629;-0,02992;26,99629
0,2076;27,39867;-0,02968;27,39867
0,2095;27,80234;-0,02943;27,80234
0,2114;28,20716;-0,02917;28,20716
0,2133;28,61327;-0,02891;28,61327
0,2152;29,02054;-0,02864;29,02054
0,2170;29,42886;-0,02837;29,42886
0,2189;29,83834;-0,02810;29,83834
0,2208;30,24887;-0,02781;30,24887
0,2227;30,66068;-0,02751;30,66068
0,2245;31,07354;-0,02722;31,07354
0,2264;31,48756;-0,02691;31,48756
0,2283;31,90298;-0,02660;31,90298
0,2302;32,31980;-0,02628;32,31980
0,2320;32,73801;-0,02596;32,73801
0,2339;33,15785;-0,02563;33,15785
0,2358;33,57909;-0,02529;33,57909
0,2377;34,00207;-0,02495;34,00207
0,2396;34,42669;-0,02460;34,42669
0,2414;34,85258;-0,02425;34,85258
0,2433;35,27975;-0,02389;35,27975
0,2452;35,70763;-0,02351;35,70763
0,2471;36,13631;-0,02314;36,13631
0,2489;36,56547;-0,02277;36,56547
0,2508;36,99497;-0,02238;36,99497
0,2527;37,42471;-0,02199;37,42471
0,2546;37,85456;-0,02159;37,85456
0,2565;38,28406;-0,02119;38,28406
0,2583;38,71321;-0,02078;38,71321
0,2602;39,14178;-0,02037;39,14178
0,2621;39,56954;-0,01994;39,56954
0,2640;39,99637;-0,01952;39,99637
0,2658;40,42191;-0,01909;40,42191
0,2677;40,84618;-0,01865;40,84618
0,2696;41,26869;-0,01821;41,26869
0,2715;41,68947;-0,01776;41,68947
0,2734;42,10826;-0,01730;42,10826
0,2752;42,52496;-0,01685;42,52496
0,2771;42,93956;-0,01639;42,93956
0,2790;43,35184;-0,01592;43,35184
0,2809;43,76167;-0,01544;43,76167
0,2827;44,16871;-0,01496;44,16871
0,2846;44,57307;-0,01448;44,57307
0,2865;44,97452;-0,01399;44,97452
0,2886;45,41287;-0,01350;45,41287
0,2906;45,84784;-0,01301;45,84784
0,2927;46,27932;-0,01250;46,27932
0,2948;46,70755;-0,01149;46,70755
0,2968;47,13251;-0,01097;47,13251
0,2989;47,55421;-0,01045;47,55421
0,3009;47,97289;-0,00994;47,97289
0,3030;48,38866;-0,00941;48,38866
0,3051;48,80175;-0,00888;48,80175
0,3071;49,21228;-0,00834;49,21228
0,3092;49,62025;-0,00781;49,62025
0,3113;50,02589;-0,00727;50,02589
0,3133;50,42920;-0,00672;50,42920
0,3154;50,83019;-0,00563;50,83019
0,3177;51,26516;-0,00508;51,26516
0,3199;51,69792;-0,00452;51,69792
0,3222;52,12847;-0,00396;52,12847
0,3244;52,55716;-0,00340;52,55716
0,3267;52,98410;-0,00227;52,98410
0,3289;53,40930;-0,00170;53,40930
0,3312;53,83310;-0,00112;53,83310
0,3334;54,25538;-0,00055;54,25538
0,3357;54,67639;0,00003;54,67639
0,3379;55,09635;0,00118;55,09635
0,3402;55,51549;0,00177;55,51549
0,3424;55,93393;0,00235;55,93393
0,3447;56,35168;0,00293;56,35168
0,3469;56,76884;0,00352;56,76884
0,3492;57,18554;0,00470;57,18554
0,3515;57,60201;0,00529;57,60201
0,3537;58,01847;0,00588;58,01847
0,3560;58,43506;0,00648;58,43506
0,3582;58,85152;0,00707;58,85152
0,3605;59,26811;0,00826;59,26811
0,3627;59,68469;0,00887;59,68469
0,3650;60,10115;0,00947;60,10115
0,3672;60,51739;0,01006;60,51739
0,3695;60,93350;0,01066;60,93350
0,3717;61,34927;0,01186;61,34927
0,3740;61,76504;0,01247;61,76504
0,3762;62,18046;0,01307;62,18046
0,3785;62,59553;0,01367;62,59553
0,3807;63,00990;0,01427;63,00990
0,3830;63,42357;0,01548;63,42357
0,3852;63,83666;0,01608;63,83666
0,3875;64,24894;0,01668;64,24894
0,3897;64,66063;0,01728;64,66063
0,3920;65,07163;0,01788;65,07163
0,3943;65,48204;0,01909;65,48204
0,3965;65,89152;0,01969;65,89152
0,3988;66,30019;0,02028;66,30019
0,4010;66,70769;0,02088;66,70769
0,4033;67,11427;0,02148;67,11427
0,4055;67,51991;0,02267;67,51991
0,4078;67,92485;0,02327;67,92485
0,4100;68,32909;0,02386;68,32909
0,4123;68,73252;0,02445;68,73252
0,4145;69,13514;0,02505;69,13514
0,4168;69,53659;0,02623;69,53659
0,4190;69,93664;0,02681;69,93664
0,4215;70,36836;0,02741;70,36836
0,4239;70,79844;0,02799;70,79844
0,4264;71,22678;0,02916;71,22678
0,4288;71,65349;0,02974;71,65349
0,4312;72,07845;0,03031;72,07845
0,4337;72,50190;0,03147;72,50190
0,4361;72,92372;0,03204;72,92372
0,4386;73,34403;0,03262;73,34403
0,4410;73,76294;0,03319;73,76294
0,4434;74,18011;0,03432;74,18011
0,4459;74,59541;0,03490;74,59541
0,4483;75,00861;0,03545;75,00861
0,4508;75,41961;0,03657;75,41961
0,4532;75,82863;0,03713;75,82863
0,4556;76,23578;0,03768;76,23578
0,4581;76,64142;0,03878;76,64142
0,4605;77,04602;0,03934;77,04602
0,4630;77,44979;0,03989;77,44979
0,4654;77,85276;0,04042;77,85276
0,4678;78,25444;0,04151;78,25444
0,4703;78,65461;0,04204;78,65461
0,4729;79,08412;0,04257;79,08412
0,4755;79,51245;0,04363;79,51245
0,4782;79,93974;0,04415;79,93974
0,4808;80,36634;0,04520;80,36634
0,4834;80,79211;0,04572;80,79211
0,4861;81,21685;0,04624;81,21685
0,4887;81,64041;0,04725;81,64041
0,4913;82,06281;0,04776;82,06281
0,4939;82,48405;0,04877;82,48405
0,4966;82,90401;0,04926;82,90401
0,4992;83,32292;0,04976;83,32292
0,5018;83,74067;0,05074;83,74067
0,5045;84,15713;0,05123;84,15713
0,5071;84,57267;0,05221;84,57267
0,5097;84,98750;0,05268;84,98750
0,5123;85,40176;0,05316;85,40176
0,5150;85,81578;0,05410;85,81578
0,5176;86,22980;0,05457;86,22980
0,5202;86,64359;0,05550;86,64359
0,5229;87,05738;0,05596;87,05738
0,5255;87,47094;0,05642;87,47094
0,5281;87,88414;0,05733;87,88414
0,5307;88,29677;0,05777;88,29677
0,5334;88,70893;0,05866;88,70893
0,5360;89,12039;0,05909;89,12039
0,5386;89,53138;0,05954;89,53138
0,5413;89,94168;0,06040;89,94168
0,5439;90,35128;0,06083;90,35128
0,5465;90,76006;0,06168;90,76006
0,5491;91,16815;0,06210;91,16815
0,5518;91,57530;0,06252;91,57530
0,5544;91,98176;0,06334;91,98176
0,5570;92,38728;0,06376;92,38728
0,5597;92,79188;0,06456;92,79188
0,5623;93,19507;0,06496;93,19507
0,5649;93,59664;0,06537;93,59664
0,5677;94,02498;0,06616;94,02498
0,5705;94,45157;0,06655;94,45157
0,5734;94,87642;0,06731;94,87642
0,5762;95,29964;0,06770;95,29964
0,5790;95,72157;0,06846;95,72157
0,5818;96,14211;0,06883;96,14211
0,5846;96,56172;0,06957;96,56172
0,5874;96,98052;0,06994;96,98052
0,5903;97,39838;0,07066;97,39838
0,5931;97,81531;0,07103;97,81531
0,5959;98,23178;0,07174;98,23178
0,5987;98,64778;0,07209;98,64778
0,6015;99,06308;0,07278;99,06308
0,6043;99,47698;0,07313;99,47698
0,6072;99,88891;0,07380;99,88891
0,6100;100,29886;0,07415;100,29886
0,6128;100,70729;0,07481;100,70729
0,6156;101,11480;0,07514;101,11480
0,6184;101,52149;0,07579;101,52149
0,6212;101,92736;0,07611;101,92736
0,6240;102,33195;0,07675;102,33195
0,6269;102,73515;0,07706;102,73515
0,6297;103,13683;0,07769;103,13683
0,6325;103,53735;0,07800;103,53735
0,6355;103,96383;0,07861;103,96383
0,6385;104,39019;0,07921;104,39019
0,6413;104,79024;0,07950;104,79024
0,6441;105,19088;0,08010;105,19088
0,6470;105,59175;0,08038;105,59175
0,6498;105,99285;0,08097;105,99285
0,6526;106,39337;0,08125;106,39337
0,6556;106,81833;0,08181;106,81833
0,6586;107,23794;0,08210;107,23794
0,6616;107,64824;0,08264;107,64824
0,6648;108,07006;0,08319;108,07006
0,6680;108,47361;0,08347;108,47361
0,6714;108,87436;0,08400;108,87436
0,6751;109,27639;0,08453;109,27639
0,6796;109,68017;0,08532;109,68017
0,6862;110,08383;0,08610;110,08383
0,7436;110,48389;0,09494;110,48389
0,7568;110,88394;0,09757;110,88394
0,7639;111,28912;0,09882;111,28912
0,7695;111,69301;0,10017;111,69301
0,7746;112,09900;0,10160;112,09900
0,7797;112,50918;0,10313;112,50918
0,7861;112,91785;0,10476;112,91785
1,2580;113,31849;0,66860;113,31849
1,2656;113,73076;0,67711;113,73076
1,2701;114,13838;0,68130;114,13838
1,2742;114,54461;0,68543;114,54461
1,2783;114,94757;0,68953;114,94757
1,2830;115,34844;0,69562;115,34844
1,2905;115,75001;0,70361;115,75001
1,4775;116,03017;1,30568;116,03017
1,5413;116,05322;1,91028;116,05322
1,5902;116,06835;2,51580;116,06835
1,6333;116,08080;3,12549;116,08080
1,6746;116,08942;3,74714;116,08942
1,7141;116,09815;4,35403;116,09815
1,7535;116,10536;4,95666;116,10536
1,7550;116,10548;4,95666;116,10548
