Part protocol
Network name;Part_OP10_MP-002_2020-08-26_10-27-12_0016_OK.csv
Protocol version;2.01.00

Index;Result information;Process values - curve related;Process values - EO related;Evaluation objects settings;Switch signal settings;Device information;Channel-X settings;Channel-Y settings;Cycle control settings;Evaluation settings;Trigger Y settings;Block settings;Measuring curve;Measuring points;Sequence;
Line;10;30;40;70;100;120;150;190;220;240;250;260;270;280;570;



Result information
Date;2020/08/26
Time;10:27:12
Cycle number;16
Total result;OK
Triggered switch signals
Part serial number;0016
Measuring program name;D57-Right
Measuring program number;2
Zero X offset;0,00;mm
Tara Y offset;0,0;kN









Process values - curve related
Block X;116,16;mm;XMIN-X;-0,06;mm
Block Y;4,8;kN;XMIN-Y;0,0;kN
Ref X;-;mm;XMAX-X;116,16;mm
Peak-peak X;116,22;mm;XMAX-Y;4,8;kN
Peak-peak Y;4,8;kN;YMIN-X;-0,06;mm
;;;YMIN-Y;0,0;kN
;;;YMAX-X;116,16;mm
;;;YMAX-Y;4,8;kN

Process values - EO related;Result;Entry;Exit;XMIN-X;XMIN-Y;XMAX-X;XMAX-Y;YMIN-Y;YMIN-X;YMAX-Y;YMAX-X
;;;;mm;kN;mm;kN;kN;mm;kN;mm
EO-01;OK;0,7;0,7;;;;;0,7;115,00;0,7;115,38;;;;;;
EO-02;OK;;116,14;116,12;2,3;116,13;3,2;2,3;116,12;;;;;;;;
EO-03;None;
EO-04;None;
























Evaluation objects settings;Reaction;X reference;Y-Reference;XMin;XMax;YMin;YMax;Entry;Exit;Curve part;Catch zone X;Catch zone Y
EO-01;UNI-BOX;ABSOLUTE;-;115,00;115,50;0,4;2,0;LEFT;RIGHT;ANY;+50%;+50%
EO-02;UNI-BOX;ABSOLUTE;-;115,40;117,10;2,3;3,3;ANY;ABOVE;ANY;+50%;+50%
EO-03;OFF
EO-04;OFF

























Switch signal settings;Channel;Threshold at;;Trigger from;Reference;Latch until
Type S1;OFF
Type S2;OFF

















Device information
Device type;maXYmos BL
Device type number;5867B1011
Device serial number;5182443
Firmware version;2.3.2 (r22473-BL_v2.3.x)
-
-
-
-
-
IP Address;10.0.0.18
Network name;OP10
Profibus address;10
-
-
-
Station name;OP10
Company name;
Comment;











Channel-X settings
Use the settings from global setup;True
Sensor-X type;Â±10V
Unit;mm
Used range from;0,00;mm
Used range to;200,00;mm
Decimal places;XXXX.XX
Scaling by;Teach-In
Point 1;0,00;mm;-0,350;%
Point 2;200,00;mm;10,000;%
Invert signal;FALSE
Filter;20 Hz
Test point;0,00;mm
Tolerance;2,00;mm
Enable sensor test by dig-input;FALSE
Zoom from;100,00;mm
Zoom to;120,00;mm























Channel-Y settings
Use the settings from global setup;True
Sensor-Y type;Strain Gage
Unit;kN
Used range from;0,0;kN
Used range to;20,0;kN
Decimal places;XXXXX.X
Scaling by;Teach-In
Point 1;0,0;kN;-0,01562;%
Point 2;20,0;kN;2,00000;%
Invert signal;FALSE
Filter;1 Hz
Piezo reset;-
Test point;0,0;kN
Tolerance;0,1;kN
Enable sensor test by dig-input;FALSE
Zoom from;0,0;kN
Zoom to;5,0;kN












Cycle control settings
Use the settings from global setup;True
Measuring function;Y (X)
Delta-X;Automatic
START condition;Dig-Input
STOP condition;Dig-Input
Cycle time out;20,00;s
Turning point RIGHT;YMAX
Turning point LEFT;NONE
Cut curve at;NONE










Evaluation settings
Capture only first NOK-EO for statistics;False
Hysteresis-X;0,0;%
Hysteresis-Y;100,0;%






Trigger Y settings
Threshold;1,8;kN
Value X at TRIGGER Y;0,00;mm
Approach from;BELOW






Block settings
Value X at block;XMAX
Block at;0,00;mm







Measuring curve
Number of measuring points;288
Ref. Graph on;ABSOLUTE
Curve segments;0;287;286;288;


Time;X(ABSOLUTE);Y;X (ABSOLUTE)


s;mm;kN;mm
0,0000;-0,05701;-0,03619;-0,05701
0,1056;0,35282;-0,03619;0,35282
0,1090;0,76277;-0,03619;0,76277
0,1114;1,18413;-0,03618;1,18413
0,1135;1,62783;-0,03618;1,62783
0,1152;2,05081;-0,03618;2,05081
0,1167;2,46949;-0,03617;2,46949
0,1182;2,92169;-0,03616;2,92169
0,1195;3,33699;-0,03616;3,33699
0,1208;3,76265;-0,03616;3,76265
0,1221;4,19181;-0,03615;4,19181
0,1234;4,61933;-0,03614;4,61933
0,1248;5,04150;-0,03612;5,04150
0,1261;5,45576;-0,03612;5,45576
0,1274;5,86000;-0,03611;5,86000
0,1289;6,30824;-0,03610;6,30824
0,1304;6,74147;-0,03608;6,74147
0,1319;7,16061;-0,03608;7,16061
0,1334;7,56800;-0,03606;7,56800
0,1351;8,01473;-0,03603;8,01473
0,1368;8,45238;-0,03600;8,45238
0,1385;8,88374;-0,03597;8,88374
0,1401;9,31185;-0,03595;9,31185
0,1418;9,73902;-0,03591;9,73902
0,1435;10,16725;-0,03587;10,16725
0,1452;10,59780;-0,03587;10,59780
0,1469;11,03137;-0,03583;11,03137
0,1486;11,46832;-0,03578;11,46832
0,1503;11,90807;-0,03572;11,90807
0,1520;12,35003;-0,03568;12,35003
0,1537;12,79315;-0,03561;12,79315
0,1554;13,23650;-0,03556;13,23650
0,1570;13,67904;-0,03548;13,67904
0,1587;14,11983;-0,03542;14,11983
0,1604;14,55818;-0,03534;14,55818
0,1621;14,99339;-0,03534;14,99339
0,1638;15,42498;-0,03526;15,42498
0,1655;15,85251;-0,03518;15,85251
0,1672;16,27596;-0,03509;16,27596
0,1689;16,69510;-0,03499;16,69510
0,1706;17,10959;-0,03489;17,10959
0,1723;17,51965;-0,03478;17,51965
0,1739;17,92518;-0,03467;17,92518
0,1756;18,32663;-0,03456;18,32663
0,1775;18,76812;-0,03444;18,76812
0,1794;19,20507;-0,03431;19,20507
0,1813;19,63818;-0,03418;19,63818
0,1831;20,06757;-0,03404;20,06757
0,1850;20,49393;-0,03389;20,49393
0,1869;20,91738;-0,03374;20,91738
0,1888;21,33862;-0,03359;21,33862
0,1907;21,75776;-0,03343;21,75776
0,1925;22,17516;-0,03326;22,17516
0,1944;22,59092;-0,03309;22,59092
0,1963;23,00530;-0,03291;23,00530
0,1982;23,41827;-0,03273;23,41827
0,2000;23,82985;-0,03253;23,82985
0,2019;24,24014;-0,03234;24,24014
0,2038;24,64939;-0,03213;24,64939
0,2057;25,05771;-0,03192;25,05771
0,2075;25,46533;-0,03170;25,46533
0,2094;25,87214;-0,03148;25,87214
0,2113;26,27824;-0,03125;26,27824
0,2132;26,68342;-0,03101;26,68342
0,2151;27,08813;-0,03077;27,08813
0,2169;27,49237;-0,03052;27,49237
0,2188;27,89650;-0,03027;27,89650
0,2207;28,30063;-0,03001;28,30063
0,2226;28,70453;-0,02974;28,70453
0,2244;29,10819;-0,02947;29,10819
0,2263;29,51150;-0,02919;29,51150
0,2282;29,91458;-0,02890;29,91458
0,2301;30,31755;-0,02862;30,31755
0,2320;30,72051;-0,02832;30,72051
0,2338;31,12359;-0,02801;31,12359
0,2357;31,52679;-0,02770;31,52679
0,2376;31,93045;-0,02738;31,93045
0,2395;32,33458;-0,02706;32,33458
0,2413;32,73940;-0,02673;32,73940
0,2432;33,14493;-0,02639;33,14493
0,2451;33,55138;-0,02605;33,55138
0,2470;33,95877;-0,02570;33,95877
0,2489;34,36709;-0,02535;34,36709
0,2507;34,77634;-0,02498;34,77634
0,2526;35,18664;-0,02462;35,18664
0,2545;35,59786;-0,02424;35,59786
0,2564;36,00991;-0,02386;36,00991
0,2582;36,42277;-0,02348;36,42277
0,2601;36,83632;-0,02308;36,83632
0,2620;37,25058;-0,02268;37,25058
0,2639;37,66530;-0,02228;37,66530
0,2657;38,08025;-0,02188;38,08025
0,2676;38,49555;-0,02146;38,49555
0,2695;38,91085;-0,02103;38,91085
0,2714;39,32616;-0,02061;39,32616
0,2733;39,74134;-0,02018;39,74134
0,2751;40,15606;-0,01974;40,15606
0,2770;40,57020;-0,01930;40,57020
0,2789;40,98352;-0,01885;40,98352
0,2808;41,39568;-0,01840;41,39568
0,2826;41,80668;-0,01794;41,80668
0,2845;42,21639;-0,01748;42,21639
0,2864;42,62483;-0,01701;42,62483
0,2883;43,03187;-0,01654;43,03187
0,2902;43,43739;-0,01605;43,43739
0,2920;43,84140;-0,01557;43,84140
0,2939;44,24367;-0,01508;44,24367
0,2958;44,64430;-0,01459;44,64430
0,2979;45,08277;-0,01409;45,08277
0,2999;45,51891;-0,01359;45,51891
0,3020;45,95248;-0,01308;45,95248
0,3040;46,38361;-0,01257;46,38361
0,3061;46,81207;-0,01205;46,81207
0,3082;47,23785;-0,01154;47,23785
0,3102;47,66071;-0,01101;47,66071
0,3123;48,08056;-0,01048;48,08056
0,3144;48,49714;-0,00942;48,49714
0,3164;48,91081;-0,00888;48,91081
0,3185;49,32157;-0,00833;49,32157
0,3206;49,72966;-0,00779;49,72966
0,3226;50,13530;-0,00724;50,13530
0,3247;50,53850;-0,00669;50,53850
0,3268;50,93948;-0,00613;50,93948
0,3290;51,37422;-0,00558;51,37422
0,3313;51,80652;-0,00446;51,80652
0,3335;52,23660;-0,00388;52,23660
0,3358;52,66448;-0,00332;52,66448
0,3380;53,09060;-0,00274;53,09060
0,3403;53,51487;-0,00217;53,51487
0,3425;53,93762;-0,00101;53,93762
0,3448;54,35921;-0,00043;54,35921
0,3470;54,77986;0,00015;54,77986
0,3493;55,19982;0,00074;55,19982
0,3515;55,61873;0,00132;55,61873
0,3538;56,03659;0,00251;56,03659
0,3560;56,45329;0,00310;56,45329
0,3583;56,86883;0,00369;56,86883
0,3606;57,28355;0,00428;57,28355
0,3628;57,69780;0,00489;57,69780
0,3651;58,11206;0,00608;58,11206
0,3673;58,52654;0,00668;58,52654
0,3696;58,94138;0,00728;58,94138
0,3718;59,35657;0,00788;59,35657
0,3741;59,77187;0,00849;59,77187
0,3763;60,18729;0,00970;60,18729
0,3786;60,60247;0,01030;60,60247
0,3808;61,01766;0,01091;61,01766
0,3831;61,43296;0,01151;61,43296
0,3853;61,84826;0,01212;61,84826
0,3876;62,26345;0,01334;62,26345
0,3898;62,67794;0,01394;62,67794
0,3921;63,09161;0,01455;63,09161
0,3943;63,50435;0,01515;63,50435
0,3966;63,91593;0,01576;63,91593
0,3989;64,32634;0,01697;64,32634
0,4011;64,73547;0,01758;64,73547
0,4034;65,14356;0,01819;65,14356
0,4056;65,55036;0,01879;65,55036
0,4079;65,95624;0,01940;65,95624
0,4101;66,36118;0,02060;66,36118
0,4124;66,76566;0,02121;66,76566
0,4146;67,16944;0,02181;67,16944
0,4169;67,57263;0,02241;67,57263
0,4191;67,97502;0,02301;67,97502
0,4214;68,37670;0,02420;68,37670
0,4236;68,77745;0,02481;68,77745
0,4261;69,21033;0,02540;69,21033
0,4285;69,64193;0,02599;69,64193
0,4310;70,07225;0,02718;70,07225
0,4334;70,50140;0,02777;70,50140
0,4358;70,92904;0,02835;70,92904
0,4383;71,35517;0,02953;71,35517
0,4407;71,77931;0,03011;71,77931
0,4432;72,20183;0,03069;72,20183
0,4456;72,62272;0,03128;72,62272
0,4480;73,04210;0,03242;73,04210
0,4505;73,46008;0,03300;73,46008
0,4529;73,87689;0,03357;73,87689
0,4554;74,29254;0,03471;74,29254
0,4578;74,70668;0,03528;74,70668
0,4602;75,11919;0,03585;75,11919
0,4627;75,52995;0,03697;75,52995
0,4651;75,93885;0,03752;75,93885
0,4676;76,34624;0,03808;76,34624
0,4700;76,75258;0,03864;76,75258
0,4724;77,15822;0,03974;77,15822
0,4749;77,56328;0,04028;77,56328
0,4773;77,96753;0,04082;77,96753
0,4798;78,37107;0,04190;78,37107
0,4822;78,77345;0,04244;78,77345
0,4847;79,17479;0,04298;79,17479
0,4873;79,60545;0,04403;79,60545
0,4899;80,03437;0,04456;80,03437
0,4925;80,46143;0,04508;80,46143
0,4952;80,88675;0,04612;80,88675
0,4978;81,31043;0,04663;81,31043
0,5004;81,73271;0,04765;81,73271
0,5031;82,15360;0,04816;82,15360
0,5057;82,57333;0,04866;82,57333
0,5083;82,99212;0,04966;82,99212
0,5109;83,41022;0,05016;83,41022
0,5136;83,82796;0,05114;83,82796
0,5162;84,24513;0,05162;84,24513
0,5188;84,66171;0,05211;84,66171
0,5214;85,07748;0,05307;85,07748
0,5241;85,49266;0,05355;85,49266
0,5267;85,90692;0,05448;85,90692
0,5293;86,32047;0,05496;86,32047
0,5320;86,73298;0,05542;86,73298
0,5346;87,14468;0,05633;87,14468
0,5372;87,55556;0,05679;87,55556
0,5398;87,96562;0,05770;87,96562
0,5425;88,37499;0,05814;88,37499
0,5451;88,78354;0,05858;88,78354
0,5477;89,19127;0,05946;89,19127
0,5504;89,59854;0,05990;89,59854
0,5530;90,00477;0,06076;90,00477
0,5556;90,41006;0,06119;90,41006
0,5582;90,81419;0,06161;90,81419
0,5609;91,21762;0,06244;91,21762
0,5635;91,62058;0,06286;91,62058
0,5661;92,02320;0,06368;92,02320
0,5688;92,42500;0,06409;92,42500
0,5714;92,82587;0,06449;92,82587
0,5742;93,25362;0,06530;93,25362
0,5770;93,67987;0,06568;93,67987
0,5798;94,10436;0,06647;94,10436
0,5827;94,52746;0,06686;94,52746
0,5855;94,94905;0,06762;94,94905
0,5883;95,36924;0,06800;95,36924
0,5911;95,78792;0,06875;95,78792
0,5939;96,20485;0,06912;96,20485
0,5967;96,62004;0,06986;96,62004
0,5995;97,03394;0,07022;97,03394
0,6024;97,44680;0,07093;97,44680
0,6052;97,85908;0,07129;97,85908
0,6080;98,27077;0,07200;98,27077
0,6108;98,68177;0,07234;98,68177
0,6136;99,09218;0,07303;99,09218
0,6164;99,50166;0,07337;99,50166
0,6193;99,90986;0,07404;99,90986
0,6221;100,31702;0,07438;100,31702
0,6249;100,72324;0,07503;100,72324
0,6277;101,12911;0,07536;101,12911
0,6305;101,53510;0,07600;101,53510
0,6333;101,94110;0,07632;101,94110
0,6362;102,34685;0,07695;102,34685
0,6390;102,75214;0,07726;102,75214
0,6418;103,15720;0,07788;103,15720
0,6446;103,56238;0,07818;103,56238
0,6474;103,96802;0,07878;103,96802
0,6502;104,37413;0,07908;104,37413
0,6531;104,78070;0,07967;104,78070
0,6559;105,18774;0,07996;105,18774
0,6587;105,59478;0,08054;105,59478
0,6615;106,00158;0,08083;106,00158
0,6643;106,40745;0,08139;106,40745
0,6671;106,81042;0,08167;106,81042
0,6701;107,23317;0,08223;107,23317
0,6731;107,64393;0,08277;107,64393
0,6763;108,06249;0,08304;108,06249
0,6797;108,47861;0,08359;108,47861
0,6835;108,89752;0,08411;108,89752
0,6878;109,30537;0,08464;109,30537
0,6936;109,70578;0,08568;109,70578
0,7441;110,10606;0,09278;110,10606
0,7651;110,50903;0,09696;110,50903
0,7728;110,91665;0,09860;110,91665
0,7787;111,31845;0,09993;111,31845
0,7839;111,73003;0,10133;111,73003
0,7888;112,13299;0,10233;112,13299
0,7940;112,53537;0,10391;112,53537
0,8025;112,93578;0,10678;112,93578
1,2780;113,34223;0,67454;113,34223
1,2833;113,75055;0,68075;113,75055
1,2874;114,16073;0,68483;114,16073
1,2914;114,57440;0,68888;114,57440
1,2953;114,97888;0,69288;114,97888
1,2998;115,37963;0,69684;115,37963
1,3070;115,78167;0,70467;115,78167
1,4990;116,08278;1,31439;116,08278
1,5647;116,10874;1,92907;116,10874
1,6154;116,12317;2,54702;116,12317
1,6605;116,13470;3,16973;116,13470
1,7018;116,14634;3,77537;116,14634
1,7431;116,15495;4,39259;116,15495
1,7675;116,15879;4,75547;116,15879
1,7677;116,15891;4,75547;116,15891
