Part protocol
Network name;Part_OP10_MP-002_2020-08-26_15-23-58_0025_OK.csv
Protocol version;2.01.00

Index;Result information;Process values - curve related;Process values - EO related;Evaluation objects settings;Switch signal settings;Device information;Channel-X settings;Channel-Y settings;Cycle control settings;Evaluation settings;Trigger Y settings;Block settings;Measuring curve;Measuring points;Sequence;
Line;10;30;40;70;100;120;150;190;220;240;250;260;270;280;570;



Result information
Date;2020/08/26
Time;15:23:58
Cycle number;25
Total result;OK
Triggered switch signals
Part serial number;0025
Measuring program name;D57-Right
Measuring program number;2
Zero X offset;0,00;mm
Tara Y offset;0,0;kN









Process values - curve related
Block X;116,08;mm;XMIN-X;-0,01;mm
Block Y;4,8;kN;XMIN-Y;0,0;kN
Ref X;-;mm;XMAX-X;116,08;mm
Peak-peak X;116,09;mm;XMAX-Y;4,8;kN
Peak-peak Y;4,9;kN;YMIN-X;0,41;mm
;;;YMIN-Y;0,0;kN
;;;YMAX-X;116,08;mm
;;;YMAX-Y;4,8;kN

Process values - EO related;Result;Entry;Exit;XMIN-X;XMIN-Y;XMAX-X;XMAX-Y;YMIN-Y;YMIN-X;YMAX-Y;YMAX-X
;;;;mm;kN;mm;kN;kN;mm;kN;mm
EO-01;OK;0,7;0,7;;;;;0,7;115,00;0,7;115,36;;;;;;
EO-02;OK;;116,06;116,04;2,3;116,06;3,1;2,3;116,04;;;;;;;;
EO-03;None;
EO-04;None;
























Evaluation objects settings;Reaction;X reference;Y-Reference;XMin;XMax;YMin;YMax;Entry;Exit;Curve part;Catch zone X;Catch zone Y
EO-01;UNI-BOX;ABSOLUTE;-;115,00;115,50;0,4;2,0;LEFT;RIGHT;ANY;+50%;+50%
EO-02;UNI-BOX;ABSOLUTE;-;115,40;117,10;2,3;3,3;ANY;ABOVE;ANY;+50%;+50%
EO-03;OFF
EO-04;OFF

























Switch signal settings;Channel;Threshold at;;Trigger from;Reference;Latch until
Type S1;OFF
Type S2;OFF

















Device information
Device type;maXYmos BL
Device type number;5867B1011
Device serial number;5182443
Firmware version;2.3.2 (r22473-BL_v2.3.x)
-
-
-
-
-
IP Address;10.0.0.18
Network name;OP10
Profibus address;10
-
-
-
Station name;OP10
Company name;
Comment;











Channel-X settings
Use the settings from global setup;True
Sensor-X type;Â±10V
Unit;mm
Used range from;0,00;mm
Used range to;200,00;mm
Decimal places;XXXX.XX
Scaling by;Teach-In
Point 1;0,00;mm;-0,350;%
Point 2;200,00;mm;10,000;%
Invert signal;FALSE
Filter;20 Hz
Test point;0,00;mm
Tolerance;2,00;mm
Enable sensor test by dig-input;FALSE
Zoom from;100,00;mm
Zoom to;120,00;mm























Channel-Y settings
Use the settings from global setup;True
Sensor-Y type;Strain Gage
Unit;kN
Used range from;0,0;kN
Used range to;20,0;kN
Decimal places;XXXXX.X
Scaling by;Teach-In
Point 1;0,0;kN;-0,01562;%
Point 2;20,0;kN;2,00000;%
Invert signal;FALSE
Filter;1 Hz
Piezo reset;-
Test point;0,0;kN
Tolerance;0,1;kN
Enable sensor test by dig-input;FALSE
Zoom from;0,0;kN
Zoom to;5,0;kN












Cycle control settings
Use the settings from global setup;True
Measuring function;Y (X)
Delta-X;Automatic
START condition;Dig-Input
STOP condition;Dig-Input
Cycle time out;20,00;s
Turning point RIGHT;YMAX
Turning point LEFT;NONE
Cut curve at;NONE










Evaluation settings
Capture only first NOK-EO for statistics;False
Hysteresis-X;0,0;%
Hysteresis-Y;100,0;%






Trigger Y settings
Threshold;1,8;kN
Value X at TRIGGER Y;0,00;mm
Approach from;BELOW






Block settings
Value X at block;XMAX
Block at;0,00;mm







Measuring curve
Number of measuring points;288
Ref. Graph on;ABSOLUTE
Curve segments;0;287;286;288;


Time;X(ABSOLUTE);Y;X (ABSOLUTE)


s;mm;kN;mm
0,0000;-0,00696;-0,03560;-0,00696
0,1123;0,40776;-0,03563;0,40776
0,1155;0,81410;-0,03563;0,81410
0,1177;1,22137;-0,03562;1,22137
0,1196;1,64226;-0,03562;1,64226
0,1213;2,08445;-0,03562;2,08445
0,1228;2,52431;-0,03561;2,52431
0,1241;2,93880;-0,03560;2,93880
0,1254;3,37214;-0,03560;3,37214
0,1267;3,81573;-0,03560;3,81573
0,1280;4,26234;-0,03559;4,26234
0,1294;4,70674;-0,03558;4,70674
0,1307;5,14579;-0,03558;5,14579
0,1320;5,57669;-0,03556;5,57669
0,1333;5,99793;-0,03554;5,99793
0,1346;6,40823;-0,03552;6,40823
0,1361;6,86415;-0,03552;6,86415
0,1376;7,30785;-0,03550;7,30785
0,1391;7,74190;-0,03547;7,74190
0,1406;8,16860;-0,03545;8,16860
0,1421;8,58996;-0,03542;8,58996
0,1436;9,00747;-0,03542;9,00747
0,1451;9,42277;-0,03538;9,42277
0,1466;9,83750;-0,03535;9,83750
0,1481;10,25280;-0,03530;10,25280
0,1496;10,66938;-0,03525;10,66938
0,1511;11,08782;-0,03525;11,08782
0,1526;11,50802;-0,03521;11,50802
0,1541;11,92972;-0,03515;11,92972
0,1556;12,35247;-0,03509;12,35247
0,1571;12,77557;-0,03503;12,77557
0,1586;13,19856;-0,03503;13,19856
0,1601;13,62049;-0,03496;13,62049
0,1616;14,04068;-0,03489;14,04068
0,1631;14,45843;-0,03481;14,45843
0,1646;14,87292;-0,03473;14,87292
0,1662;15,28368;-0,03473;15,28368
0,1677;15,69025;-0,03464;15,69025
0,1692;16,09240;-0,03455;16,09240
0,1708;16,53913;-0,03446;16,53913
0,1725;16,97957;-0,03435;16,97957
0,1742;17,41385;-0,03425;17,41385
0,1759;17,84184;-0,03414;17,84184
0,1776;18,26377;-0,03414;18,26377
0,1793;18,68001;-0,03402;18,68001
0,1810;19,09089;-0,03390;19,09089
0,1827;19,49688;-0,03377;19,49688
0,1844;19,89844;-0,03363;19,89844
0,1862;20,34005;-0,03349;20,34005
0,1881;20,77735;-0,03336;20,77735
0,1900;21,21070;-0,03320;21,21070
0,1919;21,64066;-0,03304;21,64066
0,1937;22,06737;-0,03288;22,06737
0,1956;22,49106;-0,03272;22,49106
0,1975;22,91195;-0,03254;22,91195
0,1994;23,33027;-0,03236;23,33027
0,2013;23,74616;-0,03217;23,74616
0,2031;24,16018;-0,03198;24,16018
0,2050;24,57246;-0,03178;24,57246
0,2069;24,98333;-0,03158;24,98333
0,2088;25,39305;-0,03136;25,39305
0,2106;25,80195;-0,03115;25,80195
0,2125;26,21027;-0,03093;26,21027
0,2144;26,61800;-0,03070;26,61800
0,2163;27,02551;-0,03046;27,02551
0,2182;27,43290;-0,03022;27,43290
0,2200;27,84028;-0,02998;27,84028
0,2219;28,24767;-0,02972;28,24767
0,2238;28,65506;-0,02946;28,65506
0,2257;29,06256;-0,02919;29,06256
0,2275;29,46995;-0,02892;29,46995
0,2294;29,87733;-0,02863;29,87733
0,2313;30,28449;-0,02836;30,28449
0,2332;30,69164;-0,02806;30,69164
0,2351;31,09868;-0,02776;31,09868
0,2369;31,50572;-0,02746;31,50572
0,2388;31,91287;-0,02715;31,91287
0,2407;32,32026;-0,02683;32,32026
0,2426;32,72800;-0,02650;32,72800
0,2444;33,13585;-0,02618;33,13585
0,2463;33,54394;-0,02585;33,54394
0,2482;33,95225;-0,02551;33,95225
0,2501;34,36080;-0,02515;34,36080
0,2519;34,76959;-0,02480;34,76959
0,2538;35,17861;-0,02444;35,17861
0,2557;35,58774;-0,02408;35,58774
0,2576;35,99687;-0,02371;35,99687
0,2595;36,40589;-0,02333;36,40589
0,2613;36,81467;-0,02295;36,81467
0,2632;37,22334;-0,02256;37,22334
0,2651;37,63166;-0,02216;37,63166
0,2670;38,03951;-0,02177;38,03951
0,2688;38,44678;-0,02136;38,44678
0,2707;38,85335;-0,02095;38,85335
0,2726;39,25946;-0,02053;39,25946
0,2745;39,66499;-0,02011;39,66499
0,2764;40,06993;-0,01968;40,06993
0,2782;40,47452;-0,01925;40,47452
0,2801;40,87830;-0,01880;40,87830
0,2820;41,28138;-0,01836;41,28138
0,2839;41,68330;-0,01791;41,68330
0,2857;42,08417;-0,01746;42,08417
0,2878;42,52380;-0,01700;42,52380
0,2899;42,96180;-0,01654;42,96180
0,2919;43,39805;-0,01606;43,39805
0,2940;43,83267;-0,01559;43,83267
0,2961;44,26543;-0,01463;44,26543
0,2981;44,69645;-0,01415;44,69645
0,3002;45,12572;-0,01366;45,12572
0,3023;45,55324;-0,01316;45,55324
0,3043;45,97890;-0,01266;45,97890
0,3064;46,40270;-0,01215;46,40270
0,3085;46,82441;-0,01164;46,82441
0,3105;47,24413;-0,01113;47,24413
0,3126;47,66188;-0,01061;47,66188
0,3147;48,07776;-0,01009;48,07776
0,3167;48,49190;-0,00904;48,49190
0,3188;48,90429;-0,00850;48,90429
0,3208;49,31482;-0,00797;49,31482
0,3229;49,72372;-0,00743;49,72372
0,3250;50,13088;-0,00689;50,13088
0,3270;50,53605;-0,00634;50,53605
0,3291;50,93948;-0,00580;50,93948
0,3312;51,34093;-0,00524;51,34093
0,3334;51,77707;-0,00469;51,77707
0,3357;52,21135;-0,00357;52,21135
0,3379;52,64387;-0,00301;52,64387
0,3402;53,07477;-0,00245;53,07477
0,3424;53,50416;-0,00187;53,50416
0,3447;53,93192;-0,00131;53,93192
0,3469;54,35816;-0,00016;54,35816
0,3492;54,78289;0,00041;54,78289
0,3515;55,20646;0,00100;55,20646
0,3537;55,62874;0,00158;55,62874
0,3560;56,04998;0,00216;56,04998
0,3582;56,46982;0,00333;56,46982
0,3605;56,88838;0,00391;56,88838
0,3627;57,30566;0,00451;57,30566
0,3650;57,72190;0,00510;57,72190
0,3672;58,13732;0,00569;58,13732
0,3695;58,55215;0,00688;58,55215
0,3717;58,96652;0,00747;58,96652
0,3740;59,38043;0,00807;59,38043
0,3762;59,79375;0,00866;59,79375
0,3785;60,20649;0,00926;60,20649
0,3807;60,61912;0,01046;60,61912
0,3830;61,03163;0,01106;61,03163
0,3852;61,44437;0,01166;61,44437
0,3875;61,85711;0,01225;61,85711
0,3897;62,26973;0,01286;62,26973
0,3920;62,68189;0,01406;62,68189
0,3943;63,09370;0,01466;63,09370
0,3965;63,50493;0,01526;63,50493
0,3988;63,91593;0,01586;63,91593
0,4010;64,32646;0,01647;64,32646
0,4033;64,73652;0,01767;64,73652
0,4055;65,14612;0,01826;65,14612
0,4078;65,55490;0,01886;65,55490
0,4100;65,96276;0,01946;65,96276
0,4123;66,36945;0,02006;66,36945
0,4145;66,77509;0,02126;66,77509
0,4168;67,17945;0,02185;67,17945
0,4190;67,58264;0,02245;67,58264
0,4213;67,98491;0,02305;67,98491
0,4235;68,38625;0,02364;68,38625
0,4258;68,78676;0,02482;68,78676
0,4282;69,21976;0,02541;69,21976
0,4307;69,65171;0,02600;69,65171
0,4331;70,08237;0,02718;70,08237
0,4356;70,51164;0,02776;70,51164
0,4380;70,93940;0,02834;70,93940
0,4404;71,36564;0,02893;71,36564
0,4429;71,79002;0,03008;71,79002
0,4453;72,21243;0,03067;72,21243
0,4478;72,63285;0,03124;72,63285
0,4502;73,05118;0,03239;73,05118
0,4526;73,46741;0,03295;73,46741
0,4551;73,88166;0,03352;73,88166
0,4575;74,29406;0,03466;74,29406
0,4600;74,70470;0,03521;74,70470
0,4624;75,11349;0,03578;75,11349
0,4648;75,52029;0,03633;75,52029
0,4673;75,92558;0,03744;75,92558
0,4697;76,32971;0,03799;76,32971
0,4722;76,73303;0,03854;76,73303
0,4746;77,13587;0,03964;77,13587
0,4770;77,53814;0,04017;77,53814
0,4795;77,93994;0,04071;77,93994
0,4819;78,34116;0,04178;78,34116
0,4844;78,74168;0,04232;78,74168
0,4870;79,17199;0,04285;79,17199
0,4896;79,60115;0,04390;79,60115
0,4923;80,02902;0,04442;80,02902
0,4949;80,45550;0,04494;80,45550
0,4975;80,88034;0,04597;80,88034
0,5001;81,30344;0,04649;81,30344
0,5028;81,72492;0,04749;81,72492
0,5054;82,14499;0,04800;82,14499
0,5080;82,56390;0,04850;82,56390
0,5107;82,98200;0,04949;82,98200
0,5133;83,39963;0,04998;83,39963
0,5159;83,81702;0,05096;83,81702
0,5185;84,23430;0,05145;84,23430
0,5212;84,65112;0,05193;84,65112
0,5238;85,06770;0,05288;85,06770
0,5264;85,48428;0,05335;85,48428
0,5291;85,90110;0,05429;85,90110
0,5317;86,31815;0,05475;86,31815
0,5343;86,73520;0,05521;86,73520
0,5369;87,15189;0,05613;87,15189
0,5396;87,56766;0,05658;87,56766
0,5422;87,98261;0,05747;87,98261
0,5448;88,39629;0,05792;88,39629
0,5475;88,80891;0,05836;88,80891
0,5501;89,22014;0,05924;89,22014
0,5527;89,63020;0,05967;89,63020
0,5553;90,03876;0,06053;90,03876
0,5580;90,44591;0,06095;90,44591
0,5606;90,85167;0,06137;90,85167
0,5632;91,25626;0,06220;91,25626
0,5658;91,65946;0,06262;91,65946
0,5685;92,06137;0,06344;92,06137
0,5711;92,46201;0,06384;92,46201
0,5739;92,88953;0,06465;92,88953
0,5767;93,31531;0,06505;93,31531
0,5796;93,73899;0,06582;93,73899
0,5824;94,16070;0,06621;94,16070
0,5852;94,58031;0,06698;94,58031
0,5880;94,99805;0,06737;94,99805
0,5908;95,41394;0,06812;95,41394
0,5936;95,82831;0,06849;95,82831
0,5965;96,24128;0,06923;96,24128
0,5993;96,65298;0,06959;96,65298
0,6021;97,06397;0,07031;97,06397
0,6049;97,47462;0,07067;97,47462
0,6077;97,88492;0,07138;97,88492
0,6105;98,29498;0,07173;98,29498
0,6133;98,70493;0,07241;98,70493
0,6162;99,11441;0,07276;99,11441
0,6190;99,52331;0,07343;99,52331
0,6218;99,93140;0,07377;99,93140
0,6246;100,33855;0,07443;100,33855
0,6274;100,74477;0,07476;100,74477
0,6302;101,15030;0,07540;101,15030
0,6331;101,55547;0,07573;101,55547
0,6359;101,96030;0,07636;101,96030
0,6387;102,36478;0,07667;102,36478
0,6415;102,76879;0,07729;102,76879
0,6443;103,17222;0,07760;103,17222
0,6471;103,57507;0,07821;103,57507
0,6500;103,97757;0,07851;103,97757
0,6528;104,37995;0,07910;104,37995
0,6556;104,78256;0,07939;104,78256
0,6584;105,18529;0,07998;105,18529
0,6612;105,58744;0,08026;105,58744
0,6640;105,98901;0,08084;105,98901
0,6669;106,38953;0,08112;106,38953
0,6699;106,81379;0,08168;106,81379
0,6729;107,23142;0,08195;107,23142
0,6759;107,63835;0,08250;107,63835
0,6791;108,05435;0,08304;108,05435
0,6824;108,47000;0,08331;108,47000
0,6860;108,87110;0,08384;108,87110
0,6901;109,27185;0,08436;109,27185
0,6956;109,67272;0,08515;109,67272
0,7097;110,07336;0,08722;110,07336
0,7665;110,47760;0,09634;110,47760
0,7748;110,87766;0,09839;110,87766
0,7810;111,28551;0,09973;111,28551
0,7863;111,68580;0,10116;111,68580
0,7913;112,09854;0,10217;112,09854
0,7966;112,50709;0,10377;112,50709
0,8041;112,90831;0,10607;112,90831
1,2783;113,30929;0,67010;113,30929
1,2843;113,71528;0,67631;113,71528
1,2887;114,11545;0,68039;114,11545
1,2928;114,53378;0,68442;114,53378
1,2969;114,95071;0,69039;114,95071
1,3016;115,35752;0,69432;115,35752
1,3095;115,75839;0,70210;115,75839
1,4957;116,00887;1,30491;116,00887
1,5596;116,03041;1,91053;116,03041
1,6084;116,04635;2,51308;116,04635
1,6516;116,05787;3,11679;116,05787
1,6929;116,06684;3,73019;116,06684
1,7342;116,07627;4,35606;116,07627
1,7661;116,08278;4,83632;116,08278
1,7672;116,08313;4,83632;116,08313
