Part protocol
Network name;Part_OP10_MP-001_2020-08-25_16-11-27_0007_OK.csv
Protocol version;2.01.00

Index;Result information;Process values - curve related;Process values - EO related;Evaluation objects settings;Switch signal settings;Device information;Channel-X settings;Channel-Y settings;Cycle control settings;Evaluation settings;Trigger Y settings;Block settings;Measuring curve;Measuring points;Sequence;
Line;10;30;40;70;100;120;150;190;220;240;250;260;270;280;600;



Result information
Date;2020/08/25
Time;16:11:27
Cycle number;7
Total result;OK
Triggered switch signals
Part serial number;0007
Measuring program name;D57-Left
Measuring program number;1
Zero X offset;0,00;mm
Tara Y offset;0,0;kN









Process values - curve related
Block X;126,38;mm;XMIN-X;-0,14;mm
Block Y;7,5;kN;XMIN-Y;0,0;kN
Ref X;-;mm;XMAX-X;126,38;mm
Peak-peak X;126,52;mm;XMAX-Y;7,5;kN
Peak-peak Y;7,5;kN;YMIN-X;-0,14;mm
;;;YMIN-Y;0,0;kN
;;;YMAX-X;126,38;mm
;;;YMAX-Y;7,5;kN

Process values - EO related;Result;Entry;Exit;XMIN-X;XMIN-Y;XMAX-X;XMAX-Y;YMIN-Y;YMIN-X;YMAX-Y;YMAX-X
;;;;mm;kN;mm;kN;kN;mm;kN;mm
EO-01;OK;0,7;0,7;;;;;0,7;124,50;0,7;125,61;;;;;;
EO-02;OK;126,34;126,35;126,34;4,5;126,34;5,0;;;;;;;;;;
EO-03;None;
EO-04;None;
























Evaluation objects settings;Reaction;X reference;Y-Reference;XMin;XMax;YMin;YMax;Entry;Exit;Curve part;Catch zone X;Catch zone Y
EO-01;UNI-BOX;ABSOLUTE;-;124,50;125,70;0,5;3,0;LEFT;RIGHT;ANY;+50%;+50%
EO-02;UNI-BOX;ABSOLUTE;-;125,80;127,20;4,5;5,5;BELOW;ABOVE;ANY;+50%;+50%
EO-03;OFF
EO-04;OFF

























Switch signal settings;Channel;Threshold at;;Trigger from;Reference;Latch until
Type S1;OFF
Type S2;OFF

















Device information
Device type;maXYmos BL
Device type number;5867B1011
Device serial number;5182443
Firmware version;2.3.2 (r22473-BL_v2.3.x)
-
-
-
-
-
IP Address;10.0.0.18
Network name;OP10
Profibus address;10
-
-
-
Station name;OP10
Company name;
Comment;











Channel-X settings
Use the settings from global setup;True
Sensor-X type;Â±10V
Unit;mm
Used range from;0,00;mm
Used range to;200,00;mm
Decimal places;XXXX.XX
Scaling by;Teach-In
Point 1;0,00;mm;-0,350;%
Point 2;200,00;mm;10,000;%
Invert signal;FALSE
Filter;20 Hz
Test point;0,00;mm
Tolerance;2,00;mm
Enable sensor test by dig-input;FALSE
Zoom from;110,00;mm
Zoom to;133,11;mm























Channel-Y settings
Use the settings from global setup;True
Sensor-Y type;Strain Gage
Unit;kN
Used range from;0,0;kN
Used range to;20,0;kN
Decimal places;XXXXX.X
Scaling by;Teach-In
Point 1;0,0;kN;-0,01562;%
Point 2;20,0;kN;2,00000;%
Invert signal;FALSE
Filter;1 Hz
Piezo reset;-
Test point;0,0;kN
Tolerance;0,1;kN
Enable sensor test by dig-input;FALSE
Zoom from;0,0;kN
Zoom to;6,0;kN












Cycle control settings
Use the settings from global setup;True
Measuring function;Y (X)
Delta-X;Automatic
START condition;Dig-Input
STOP condition;Dig-Input
Cycle time out;20,00;s
Turning point RIGHT;YMAX
Turning point LEFT;NONE
Cut curve at;NONE










Evaluation settings
Capture only first NOK-EO for statistics;False
Hysteresis-X;0,0;%
Hysteresis-Y;100,0;%






Trigger Y settings
Threshold;1,9;kN
Value X at TRIGGER Y;0,00;mm
Approach from;BELOW






Block settings
Value X at block;XMAX
Block at;0,00;mm







Measuring curve
Number of measuring points;315
Ref. Graph on;ABSOLUTE
Curve segments;0;314;313;315;


Time;X(ABSOLUTE);Y;X (ABSOLUTE)


s;mm;kN;mm
0,0000;-0,14046;-0,04458;-0,14046
0,0994;0,26948;-0,04457;0,26948
0,1034;0,68805;-0,04457;0,68805
0,1062;1,10742;-0,04457;1,10742
0,1084;1,51853;-0,04457;1,51853
0,1105;1,95502;-0,04457;1,95502
0,1124;2,40105;-0,04457;2,40105
0,1141;2,84242;-0,04456;2,84242
0,1156;3,26611;-0,04456;3,26611
0,1171;3,71877;-0,04456;3,71877
0,1184;4,13850;-0,04455;4,13850
0,1197;4,58022;-0,04455;4,58022
0,1210;5,04255;-0,04455;5,04255
0,1221;5,45285;-0,04454;5,45285
0,1233;5,87257;-0,04454;5,87257
0,1244;6,29718;-0,04454;6,29718
0,1255;6,72180;-0,04453;6,72180
0,1266;7,14176;-0,04453;7,14176
0,1278;7,55345;-0,04452;7,55345
0,1289;7,95432;-0,04451;7,95432
0,1302;8,40617;-0,04451;8,40617
0,1315;8,84021;-0,04450;8,84021
0,1328;9,25610;-0,04449;9,25610
0,1343;9,70946;-0,04449;9,70946
0,1358;10,14036;-0,04448;10,14036
0,1373;10,55019;-0,04446;10,55019
0,1390;10,98982;-0,04445;10,98982
0,1407;11,41257;-0,04444;11,41257
0,1424;11,82485;-0,04442;11,82485
0,1441;12,23130;-0,04440;12,23130
0,1458;12,63496;-0,04438;12,63496
0,1475;13,03735;-0,04438;13,03735
0,1492;13,43996;-0,04435;13,43996
0,1508;13,84514;-0,04432;13,84514
0,1525;14,25427;-0,04431;14,25427
0,1542;14,66794;-0,04428;14,66794
0,1559;15,08522;-0,04424;15,08522
0,1576;15,50541;-0,04421;15,50541
0,1593;15,92828;-0,04418;15,92828
0,1610;16,35406;-0,04414;16,35406
0,1627;16,78298;-0,04410;16,78298
0,1644;17,21435;-0,04410;17,21435
0,1661;17,64734;-0,04407;17,64734
0,1677;18,08161;-0,04402;18,08161
0,1694;18,51717;-0,04398;18,51717
0,1711;18,95447;-0,04393;18,95447
0,1728;19,39340;-0,04388;19,39340
0,1745;19,83350;-0,04383;19,83350
0,1762;20,27417;-0,04378;20,27417
0,1779;20,71555;-0,04372;20,71555
0,1796;21,15809;-0,04367;21,15809
0,1813;21,60225;-0,04367;21,60225
0,1830;22,04794;-0,04360;22,04794
0,1846;22,49432;-0,04354;22,49432
0,1863;22,94081;-0,04347;22,94081
0,1880;23,38742;-0,04341;23,38742
0,1897;23,83474;-0,04334;23,83474
0,1914;24,28298;-0,04327;24,28298
0,1931;24,73215;-0,04320;24,73215
0,1948;25,18132;-0,04311;25,18132
0,1965;25,62992;-0,04304;25,62992
0,1982;26,07804;-0,04304;26,07804
0,1998;26,52605;-0,04295;26,52605
0,2015;26,97441;-0,04287;26,97441
0,2032;27,42289;-0,04278;27,42289
0,2049;27,87089;-0,04270;27,87089
0,2066;28,31762;-0,04260;28,31762
0,2083;28,76307;-0,04251;28,76307
0,2100;29,20724;-0,04241;29,20724
0,2117;29,65036;-0,04232;29,65036
0,2134;30,09197;-0,04221;30,09197
0,2151;30,53171;-0,04221;30,53171
0,2167;30,96902;-0,04211;30,96902
0,2184;31,40387;-0,04201;31,40387
0,2201;31,83663;-0,04190;31,83663
0,2218;32,26718;-0,04179;32,26718
0,2235;32,69552;-0,04168;32,69552
0,2252;33,12142;-0,04157;33,12142
0,2269;33,54487;-0,04145;33,54487
0,2286;33,96610;-0,04133;33,96610
0,2303;34,38525;-0,04121;34,38525
0,2320;34,80241;-0,04121;34,80241
0,2336;35,21737;-0,04109;35,21737
0,2353;35,62976;-0,04097;35,62976
0,2370;36,03947;-0,04084;36,03947
0,2387;36,44674;-0,04072;36,44674
0,2404;36,85145;-0,04059;36,85145
0,2421;37,25372;-0,04046;37,25372
0,2440;37,69777;-0,04033;37,69777
0,2458;38,13880;-0,04020;38,13880
0,2477;38,57715;-0,04007;38,57715
0,2496;39,01293;-0,03993;39,01293
0,2515;39,44639;-0,03979;39,44639
0,2534;39,87764;-0,03965;39,87764
0,2552;40,30645;-0,03951;40,30645
0,2571;40,73304;-0,03937;40,73304
0,2590;41,15754;-0,03922;41,15754
0,2609;41,57994;-0,03909;41,57994
0,2627;42,00036;-0,03894;42,00036
0,2646;42,41881;-0,03879;42,41881
0,2665;42,83585;-0,03864;42,83585
0,2684;43,25162;-0,03849;43,25162
0,2703;43,66634;-0,03834;43,66634
0,2721;44,08001;-0,03819;44,08001
0,2740;44,49276;-0,03804;44,49276
0,2759;44,90445;-0,03788;44,90445
0,2778;45,31568;-0,03773;45,31568
0,2796;45,72644;-0,03758;45,72644
0,2815;46,13674;-0,03742;46,13674
0,2834;46,54657;-0,03726;46,54657
0,2853;46,95605;-0,03710;46,95605
0,2871;47,36484;-0,03695;47,36484
0,2890;47,77292;-0,03679;47,77292
0,2909;48,18019;-0,03663;48,18019
0,2928;48,58676;-0,03647;48,58676
0,2947;48,99287;-0,03631;48,99287
0,2965;49,39863;-0,03615;49,39863
0,2984;49,80404;-0,03598;49,80404
0,3003;50,20898;-0,03582;50,20898
0,3022;50,61346;-0,03566;50,61346
0,3040;51,01758;-0,03549;51,01758
0,3059;51,42125;-0,03533;51,42125
0,3078;51,82444;-0,03516;51,82444
0,3097;52,22718;-0,03499;52,22718
0,3116;52,62932;-0,03484;52,62932
0,3134;53,03078;-0,03466;53,03078
0,3153;53,43106;-0,03449;53,43106
0,3174;53,87011;-0,03433;53,87011
0,3194;54,30764;-0,03416;54,30764
0,3215;54,74401;-0,03399;54,74401
0,3236;55,17922;-0,03383;55,17922
0,3256;55,61326;-0,03366;55,61326
0,3277;56,04614;-0,03348;56,04614
0,3298;56,47739;-0,03315;56,47739
0,3318;56,90689;-0,03298;56,90689
0,3339;57,33453;-0,03281;57,33453
0,3360;57,76019;-0,03263;57,76019
0,3380;58,18387;-0,03247;58,18387
0,3401;58,60546;-0,03230;58,60546
0,3422;59,02507;-0,03212;59,02507
0,3442;59,44270;-0,03196;59,44270
0,3463;59,85858;-0,03178;59,85858
0,3484;60,27261;-0,03161;60,27261
0,3504;60,68500;-0,03127;60,68500
0,3525;61,09553;-0,03110;61,09553
0,3545;61,50431;-0,03093;61,50431
0,3566;61,91123;-0,03075;61,91123
0,3587;62,31629;-0,03059;62,31629
0,3607;62,71961;-0,03041;62,71961
0,3628;63,12129;-0,03024;63,12129
0,3649;63,52169;-0,03007;63,52169
0,3671;63,95690;-0,02990;63,95690
0,3694;64,39059;-0,02956;64,39059
0,3716;64,82254;-0,02939;64,82254
0,3739;65,25274;-0,02922;65,25274
0,3761;65,68096;-0,02905;65,68096
0,3784;66,10720;-0,02887;66,10720
0,3806;66,53182;-0,02854;66,53182
0,3829;66,95492;-0,02837;66,95492
0,3851;67,37721;-0,02820;67,37721
0,3874;67,79856;-0,02803;67,79856
0,3897;68,21933;-0,02787;68,21933
0,3919;68,63929;-0,02752;68,63929
0,3942;69,05820;-0,02736;69,05820
0,3964;69,47583;-0,02719;69,47583
0,3987;69,89230;-0,02702;69,89230
0,4009;70,30760;-0,02686;70,30760
0,4032;70,72174;-0,02652;70,72174
0,4054;71,13494;-0,02636;71,13494
0,4077;71,54722;-0,02619;71,54722
0,4099;71,95845;-0,02602;71,95845
0,4122;72,36863;-0,02586;72,36863
0,4144;72,77730;-0,02552;72,77730
0,4167;73,18457;-0,02537;73,18457
0,4189;73,59067;-0,02520;73,59067
0,4212;73,99608;-0,02503;73,99608
0,4234;74,40103;-0,02487;74,40103
0,4257;74,80539;-0,02454;74,80539
0,4280;75,20928;-0,02438;75,20928
0,4302;75,61225;-0,02422;75,61225
0,4325;76,01428;-0,02405;76,01428
0,4347;76,41515;-0,02389;76,41515
0,4372;76,84814;-0,02357;76,84814
0,4396;77,27974;-0,02340;77,27974
0,4420;77,71017;-0,02325;77,71017
0,4445;78,13956;-0,02292;78,13956
0,4469;78,56790;-0,02277;78,56790
0,4494;78,99530;-0,02260;78,99530
0,4518;79,42166;-0,02228;79,42166
0,4542;79,84663;-0,02213;79,84663
0,4567;80,27031;-0,02197;80,27031
0,4591;80,69248;-0,02180;80,69248
0,4616;81,11349;-0,02149;81,11349
0,4640;81,53321;-0,02133;81,53321
0,4664;81,95154;-0,02117;81,95154
0,4689;82,36835;-0,02086;82,36835
0,4713;82,78389;-0,02070;82,78389
0,4738;83,19791;-0,02054;83,19791
0,4762;83,61042;-0,02023;83,61042
0,4786;84,02141;-0,02007;84,02141
0,4811;84,43101;-0,01991;84,43101
0,4835;84,83910;-0,01977;84,83910
0,4860;85,24590;-0,01945;85,24590
0,4884;85,65155;-0,01929;85,65155
0,4908;86,05637;-0,01914;86,05637
0,4933;86,46062;-0,01883;86,46062
0,4957;86,86440;-0,01867;86,86440
0,4982;87,26748;-0,01853;87,26748
0,5006;87,66962;-0,01821;87,66962
0,5031;88,07073;-0,01806;88,07073
0,5057;88,50116;-0,01791;88,50116
0,5083;88,92962;-0,01760;88,92962
0,5109;89,35609;-0,01744;89,35609
0,5136;89,78036;-0,01729;89,78036
0,5162;90,20299;-0,01699;90,20299
0,5188;90,62411;-0,01683;90,62411
0,5214;91,04477;-0,01653;91,04477
0,5241;91,46519;-0,01638;91,46519
0,5267;91,88527;-0,01622;91,88527
0,5293;92,30488;-0,01592;92,30488
0,5320;92,72355;-0,01577;92,72355
0,5346;93,14118;-0,01546;93,14118
0,5372;93,55777;-0,01531;93,55777
0,5398;93,97365;-0,01517;93,97365
0,5425;94,38884;-0,01486;94,38884
0,5451;94,80344;-0,01471;94,80344
0,5477;95,21723;-0,01441;95,21723
0,5504;95,62997;-0,01426;95,62997
0,5530;96,04120;-0,01410;96,04120
0,5556;96,45045;-0,01380;96,45045
0,5582;96,85783;-0,01366;96,85783
0,5609;97,26348;-0,01335;97,26348
0,5635;97,66819;-0,01320;97,66819
0,5661;98,07231;-0,01305;98,07231
0,5688;98,47609;-0,01275;98,47609
0,5714;98,87941;-0,01260;98,87941
0,5740;99,28237;-0,01230;99,28237
0,5766;99,68440;-0,01216;99,68440
0,5793;100,08539;-0,01201;100,08539
0,5821;100,51361;-0,01170;100,51361
0,5849;100,94044;-0,01156;100,94044
0,5877;101,36575;-0,01126;101,36575
0,5905;101,79001;-0,01111;101,79001
0,5934;102,21346;-0,01081;102,21346
0,5962;102,63610;-0,01066;102,63610
0,5990;103,05734;-0,01036;103,05734
0,6018;103,47520;-0,01021;103,47520
0,6046;103,88806;-0,00992;103,88806
0,6074;104,29509;-0,00977;104,29509
0,6103;104,69620;-0,00947;104,69620
0,6133;105,11918;-0,00918;105,11918
0,6163;105,53925;-0,00903;105,53925
0,6193;105,95770;-0,00872;105,95770
0,6223;106,37521;-0,00857;106,37521
0,6253;106,79168;-0,00828;106,79168
0,6283;107,20593;-0,00798;107,20593
0,6313;107,61635;-0,00783;107,61635
0,6343;108,02164;-0,00754;108,02164
0,6375;108,44555;-0,00738;108,44555
0,6407;108,86214;-0,00708;108,86214
0,6439;109,27150;-0,00678;109,27150
0,6470;109,67377;-0,00648;109,67377
0,6504;110,09291;-0,00632;110,09291
0,6538;110,50647;-0,00602;110,50647
0,6572;110,91711;-0,00571;110,91711
0,6606;111,32683;-0,00541;111,32683
0,6639;111,73736;-0,00509;111,73736
0,6673;112,15033;-0,00494;112,15033
0,6707;112,56680;-0,00462;112,56680
0,6741;112,98769;-0,00430;112,98769
0,6773;113,38995;-0,00397;113,38995
0,6805;113,79734;-0,00382;113,79734
0,6837;114,21078;-0,00348;114,21078
0,6868;114,63016;-0,00315;114,63016
0,6900;115,05419;-0,00298;115,05419
0,6930;115,45552;-0,00264;115,45552
0,6960;115,85697;-0,00230;115,85697
0,6991;116,25843;-0,00212;116,25843
0,7021;116,65929;-0,00177;116,65929
0,7052;117,07937;-0,00141;117,07937
0,7084;117,49013;-0,00122;117,49013
0,7118;117,90811;-0,00086;117,90811
0,7158;118,32237;-0,00048;118,32237
0,7220;118,72940;0,00010;118,72940
1,2628;119,06940;0,60013;119,06940
1,2910;119,47609;0,63484;119,47609
1,2953;119,87882;0,63926;119,87882
1,2991;120,29133;0,64364;120,29133
1,3028;120,70872;0,64796;120,70872
1,3068;121,12030;0,65223;121,12030
1,3113;121,53293;0,65646;121,53293
1,3171;121,93601;0,66273;121,93601
1,3261;122,34211;0,67297;122,34211
1,3346;122,74345;0,68304;122,74345
1,3404;123,14804;0,68900;123,14804
1,3449;123,55403;0,69296;123,55403
1,3490;123,96817;0,69690;123,96817
1,3530;124,37940;0,70279;124,37940
1,3567;124,77980;0,70670;124,77980
1,3606;125,19603;0,71058;125,19603
1,3652;125,60982;0,71447;125,60982
1,3723;126,01139;0,72221;126,01139
1,5989;126,24639;1,32708;126,24639
1,6815;126,27736;1,92978;126,27736
1,7453;126,29644;2,53866;126,29644
1,8017;126,30948;3,15279;126,30948
1,8542;126,32240;3,76530;126,32240
1,9049;126,33358;4,37003;126,33358
1,9556;126,34324;4,97092;126,34324
2,0082;126,35208;5,57579;126,35208
2,0645;126,36046;6,19209;126,36046
2,1246;126,36908;6,80594;126,36908
2,1903;126,37629;7,42261;126,37629
2,1940;126,37664;7,45612;126,37664
2,1957;126,37687;7,45612;126,37687
