Part protocol
Network name;Part_OP10_MP-001_2020-08-25_14-28-15_0004_OK.csv
Protocol version;2.01.00

Index;Result information;Process values - curve related;Process values - EO related;Evaluation objects settings;Switch signal settings;Device information;Channel-X settings;Channel-Y settings;Cycle control settings;Evaluation settings;Trigger Y settings;Block settings;Measuring curve;Measuring points;Sequence;
Line;10;30;40;70;100;120;150;190;220;240;250;260;270;280;600;



Result information
Date;2020/08/25
Time;14:28:15
Cycle number;4
Total result;OK
Triggered switch signals
Part serial number;0004
Measuring program name;D57-Left
Measuring program number;1
Zero X offset;0,00;mm
Tara Y offset;0,0;kN









Process values - curve related
Block X;126,39;mm;XMIN-X;-0,13;mm
Block Y;7,4;kN;XMIN-Y;0,0;kN
Ref X;-;mm;XMAX-X;126,39;mm
Peak-peak X;126,53;mm;XMAX-Y;7,4;kN
Peak-peak Y;7,5;kN;YMIN-X;0,28;mm
;;;YMIN-Y;0,0;kN
;;;YMAX-X;126,39;mm
;;;YMAX-Y;7,5;kN

Process values - EO related;Result;Entry;Exit;XMIN-X;XMIN-Y;XMAX-X;XMAX-Y;YMIN-Y;YMIN-X;YMAX-Y;YMAX-X
;;;;mm;kN;mm;kN;kN;mm;kN;mm
EO-01;OK;0,7;0,8;;;;;0,7;124,50;0,8;125,47;;;;;;
EO-02;OK;126,35;126,37;126,35;4,5;126,36;5,0;;;;;;;;;;
EO-03;None;
EO-04;None;
























Evaluation objects settings;Reaction;X reference;Y-Reference;XMin;XMax;YMin;YMax;Entry;Exit;Curve part;Catch zone X;Catch zone Y
EO-01;UNI-BOX;ABSOLUTE;-;124,50;125,70;0,5;3,0;LEFT;RIGHT;ANY;+50%;+50%
EO-02;UNI-BOX;ABSOLUTE;-;125,80;127,20;4,5;5,5;BELOW;ABOVE;ANY;+50%;+50%
EO-03;OFF
EO-04;OFF

























Switch signal settings;Channel;Threshold at;;Trigger from;Reference;Latch until
Type S1;OFF
Type S2;OFF

















Device information
Device type;maXYmos BL
Device type number;5867B1011
Device serial number;5182443
Firmware version;2.3.2 (r22473-BL_v2.3.x)
-
-
-
-
-
IP Address;10.0.0.18
Network name;OP10
Profibus address;10
-
-
-
Station name;OP10
Company name;
Comment;











Channel-X settings
Use the settings from global setup;True
Sensor-X type;Â±10V
Unit;mm
Used range from;0,00;mm
Used range to;200,00;mm
Decimal places;XXXX.XX
Scaling by;Teach-In
Point 1;0,00;mm;-0,350;%
Point 2;200,00;mm;10,000;%
Invert signal;FALSE
Filter;20 Hz
Test point;0,00;mm
Tolerance;2,00;mm
Enable sensor test by dig-input;FALSE
Zoom from;110,00;mm
Zoom to;133,11;mm























Channel-Y settings
Use the settings from global setup;True
Sensor-Y type;Strain Gage
Unit;kN
Used range from;0,0;kN
Used range to;20,0;kN
Decimal places;XXXXX.X
Scaling by;Teach-In
Point 1;0,0;kN;-0,01562;%
Point 2;20,0;kN;2,00000;%
Invert signal;FALSE
Filter;1 Hz
Piezo reset;-
Test point;0,0;kN
Tolerance;0,1;kN
Enable sensor test by dig-input;FALSE
Zoom from;0,0;kN
Zoom to;6,0;kN












Cycle control settings
Use the settings from global setup;True
Measuring function;Y (X)
Delta-X;Automatic
START condition;Dig-Input
STOP condition;Dig-Input
Cycle time out;20,00;s
Turning point RIGHT;YMAX
Turning point LEFT;NONE
Cut curve at;NONE










Evaluation settings
Capture only first NOK-EO for statistics;False
Hysteresis-X;0,0;%
Hysteresis-Y;100,0;%






Trigger Y settings
Threshold;1,9;kN
Value X at TRIGGER Y;0,00;mm
Approach from;BELOW






Block settings
Value X at block;XMAX
Block at;0,00;mm







Measuring curve
Number of measuring points;316
Ref. Graph on;ABSOLUTE
Curve segments;0;316;315;316;


Time;X(ABSOLUTE);Y;X (ABSOLUTE)


s;mm;kN;mm
0,0000;-0,13301;-0,04567;-0,13301
0,0986;0,28136;-0,04569;0,28136
0,1026;0,70306;-0,04569;0,70306
0,1054;1,12430;-0,04569;1,12430
0,1076;1,53623;-0,04569;1,53623
0,1097;1,97260;-0,04569;1,97260
0,1116;2,41746;-0,04569;2,41746
0,1133;2,85663;-0,04569;2,85663
0,1148;3,27728;-0,04569;3,27728
0,1163;3,72576;-0,04569;3,72576
0,1176;4,14083;-0,04569;4,14083
0,1189;4,57673;-0,04569;4,57673
0,1202;5,03265;-0,04569;5,03265
0,1213;5,43713;-0,04569;5,43713
0,1225;5,85092;-0,04568;5,85092
0,1236;6,26960;-0,04568;6,26960
0,1247;6,68839;-0,04567;6,68839
0,1258;7,10276;-0,04567;7,10276
0,1270;7,50899;-0,04567;7,50899
0,1283;7,96933;-0,04566;7,96933
0,1296;8,41315;-0,04566;8,41315
0,1309;8,83951;-0,04565;8,83951
0,1322;9,24865;-0,04564;9,24865
0,1337;9,69538;-0,04563;9,69538
0,1352;10,12057;-0,04563;10,12057
0,1367;10,52540;-0,04562;10,52540
0,1384;10,95967;-0,04560;10,95967
0,1401;11,37684;-0,04559;11,37684
0,1418;11,78318;-0,04557;11,78318
0,1435;12,18358;-0,04556;12,18358
0,1454;12,62554;-0,04554;12,62554
0,1472;13,06668;-0,04552;13,06668
0,1491;13,50875;-0,04550;13,50875
0,1508;13,90927;-0,04547;13,90927
0,1525;14,31363;-0,04544;14,31363
0,1542;14,72218;-0,04542;14,72218
0,1559;15,13423;-0,04542;15,13423
0,1576;15,54883;-0,04539;15,54883
0,1593;15,96576;-0,04536;15,96576
0,1609;16,38514;-0,04532;16,38514
0,1626;16,80696;-0,04529;16,80696
0,1643;17,23087;-0,04525;17,23087
0,1660;17,65619;-0,04521;17,65619
0,1677;18,08266;-0,04518;18,08266
0,1694;18,51030;-0,04513;18,51030
0,1711;18,93957;-0,04508;18,93957
0,1728;19,37035;-0,04508;19,37035
0,1745;19,80218;-0,04504;19,80218
0,1761;20,23471;-0,04499;20,23471
0,1778;20,66794;-0,04494;20,66794
0,1795;21,10233;-0,04488;21,10233
0,1812;21,53800;-0,04482;21,53800
0,1829;21,97472;-0,04477;21,97472
0,1846;22,41191;-0,04470;22,41191
0,1863;22,84898;-0,04464;22,84898
0,1880;23,28616;-0,04457;23,28616
0,1897;23,72393;-0,04457;23,72393
0,1914;24,16262;-0,04451;24,16262
0,1930;24,60202;-0,04444;24,60202
0,1947;25,04153;-0,04436;25,04153
0,1964;25,48046;-0,04429;25,48046
0,1981;25,91916;-0,04421;25,91916
0,1998;26,35774;-0,04413;26,35774
0,2015;26,79667;-0,04405;26,79667
0,2032;27,23560;-0,04396;27,23560
0,2049;27,67395;-0,04388;27,67395
0,2066;28,11114;-0,04388;28,11114
0,2083;28,54727;-0,04379;28,54727
0,2099;28,98236;-0,04370;28,98236
0,2116;29,41687;-0,04360;29,41687
0,2133;29,85056;-0,04351;29,85056
0,2150;30,28298;-0,04341;30,28298
0,2167;30,71399;-0,04332;30,71399
0,2184;31,14373;-0,04321;31,14373
0,2201;31,57241;-0,04310;31,57241
0,2218;32,00029;-0,04300;32,00029
0,2235;32,42723;-0,04300;32,42723
0,2251;32,85277;-0,04289;32,85277
0,2268;33,27704;-0,04278;33,27704
0,2285;33,69979;-0,04267;33,69979
0,2302;34,12138;-0,04256;34,12138
0,2319;34,54180;-0,04244;34,54180
0,2336;34,96094;-0,04232;34,96094
0,2353;35,37846;-0,04220;35,37846
0,2370;35,79446;-0,04208;35,79446
0,2387;36,20883;-0,04195;36,20883
0,2404;36,62180;-0,04195;36,62180
0,2420;37,03326;-0,04183;37,03326
0,2437;37,44298;-0,04170;37,44298
0,2454;37,85095;-0,04157;37,85095
0,2471;38,25740;-0,04144;38,25740
0,2488;38,66235;-0,04131;38,66235
0,2505;39,06578;-0,04117;39,06578
0,2522;39,46758;-0,04104;39,46758
0,2539;39,86786;-0,04090;39,86786
0,2557;40,31087;-0,04076;40,31087
0,2576;40,75189;-0,04062;40,75189
0,2595;41,19106;-0,04048;41,19106
0,2614;41,62801;-0,04033;41,62801
0,2633;42,06275;-0,04020;42,06275
0,2651;42,49539;-0,04005;42,49539
0,2670;42,92606;-0,03990;42,92606
0,2689;43,35487;-0,03975;43,35487
0,2708;43,78181;-0,03960;43,78181
0,2726;44,20677;-0,03946;44,20677
0,2745;44,62975;-0,03931;44,62975
0,2764;45,05076;-0,03915;45,05076
0,2783;45,46967;-0,03900;45,46967
0,2802;45,88625;-0,03884;45,88625
0,2820;46,30039;-0,03869;46,30039
0,2839;46,71174;-0,03853;46,71174
0,2858;47,12005;-0,03837;47,12005
0,2877;47,52535;-0,03821;47,52535
0,2895;47,92761;-0,03806;47,92761
0,2916;48,36677;-0,03790;48,36677
0,2937;48,80280;-0,03774;48,80280
0,2957;49,23591;-0,03759;49,23591
0,2978;49,66622;-0,03742;49,66622
0,2999;50,09375;-0,03726;50,09375
0,3019;50,51859;-0,03709;50,51859
0,3040;50,94053;-0,03694;50,94053
0,3061;51,35979;-0,03677;51,35979
0,3081;51,77626;-0,03645;51,77626
0,3102;52,19005;-0,03628;52,19005
0,3123;52,60127;-0,03611;52,60127
0,3143;53,01029;-0,03596;53,01029
0,3164;53,41733;-0,03579;53,41733
0,3185;53,82250;-0,03562;53,82250
0,3205;54,22605;-0,03546;54,22605
0,3226;54,62785;-0,03529;54,62785
0,3247;55,02837;-0,03512;55,02837
0,3269;55,46369;-0,03479;55,46369
0,3292;55,89773;-0,03462;55,89773
0,3314;56,33050;-0,03446;56,33050
0,3337;56,76221;-0,03429;56,76221
0,3359;57,19288;-0,03412;57,19288
0,3382;57,62273;-0,03379;57,62273
0,3404;58,05223;-0,03362;58,05223
0,3427;58,48150;-0,03346;58,48150
0,3449;58,91077;-0,03329;58,91077
0,3472;59,34027;-0,03312;59,34027
0,3494;59,76977;-0,03279;59,76977
0,3517;60,19951;-0,03262;60,19951
0,3539;60,62983;-0,03246;60,62983
0,3562;61,06107;-0,03229;61,06107
0,3584;61,49349;-0,03212;61,49349
0,3607;61,92695;-0,03179;61,92695
0,3629;62,36157;-0,03162;62,36157
0,3652;62,79736;-0,03146;62,79736
0,3673;63,19811;-0,03129;63,19811
0,3693;63,60003;-0,03112;63,60003
0,3714;64,00334;-0,03096;64,00334
0,3735;64,40805;-0,03079;64,40805
0,3755;64,81416;-0,03062;64,81416
0,3776;65,22155;-0,03029;65,22155
0,3797;65,62975;-0,03012;65,62975
0,3817;66,03841;-0,02996;66,03841
0,3838;66,44720;-0,02979;66,44720
0,3859;66,85587;-0,02962;66,85587
0,3879;67,26465;-0,02946;67,26465
0,3900;67,67332;-0,02930;67,67332
0,3920;68,08199;-0,02913;68,08199
0,3941;68,49054;-0,02897;68,49054
0,3962;68,89851;-0,02880;68,89851
0,3982;69,30578;-0,02847;69,30578
0,4003;69,71177;-0,02830;69,71177
0,4024;70,11648;-0,02813;70,11648
0,4044;70,51956;-0,02797;70,51956
0,4065;70,92101;-0,02780;70,92101
0,4088;71,35691;-0,02763;71,35691
0,4110;71,79084;-0,02747;71,79084
0,4133;72,22290;-0,02714;72,22290
0,4155;72,65299;-0,02698;72,65299
0,4178;73,08097;-0,02681;73,08097
0,4200;73,50640;-0,02664;73,50640
0,4223;73,92915;-0,02648;73,92915
0,4245;74,34900;-0,02615;74,34900
0,4268;74,76581;-0,02599;74,76581
0,4290;75,17960;-0,02582;75,17960
0,4313;75,59036;-0,02565;75,59036
0,4335;75,99856;-0,02550;75,99856
0,4358;76,40409;-0,02516;76,40409
0,4380;76,80717;-0,02501;76,80717
0,4403;77,20781;-0,02484;77,20781
0,4427;77,63859;-0,02467;77,63859
0,4452;78,06588;-0,02435;78,06588
0,4476;78,48945;-0,02419;78,48945
0,4501;78,90952;-0,02402;78,90952
0,4525;79,32645;-0,02387;79,32645
0,4549;79,74059;-0,02354;79,74059
0,4574;80,15228;-0,02338;80,15228
0,4598;80,56153;-0,02322;80,56153
0,4623;80,96822;-0,02289;80,96822
0,4647;81,37200;-0,02274;81,37200
0,4671;81,77264;-0,02258;81,77264
0,4698;82,20144;-0,02226;82,20144
0,4724;82,62792;-0,02210;82,62792
0,4750;83,05288;-0,02194;83,05288
0,4777;83,47680;-0,02163;83,47680
0,4803;83,89955;-0,02147;83,89955
0,4829;84,32044;-0,02115;84,32044
0,4855;84,73911;-0,02100;84,73911
0,4882;85,15523;-0,02085;85,15523
0,4908;85,56879;-0,02053;85,56879
0,4934;85,98036;-0,02038;85,98036
0,4961;86,39089;-0,02007;86,39089
0,4987;86,80073;-0,01991;86,80073
0,5013;87,20986;-0,01977;87,20986
0,5039;87,61818;-0,01945;87,61818
0,5066;88,02556;-0,01930;88,02556
0,5092;88,43179;-0,01900;88,43179
0,5118;88,83720;-0,01885;88,83720
0,5145;89,24202;-0,01869;89,24202
0,5171;89,64627;-0,01840;89,64627
0,5197;90,05040;-0,01824;90,05040
0,5223;90,45417;-0,01794;90,45417
0,5250;90,85737;-0,01779;90,85737
0,5276;91,26010;-0,01764;91,26010
0,5302;91,66272;-0,01734;91,66272
0,5329;92,06580;-0,01719;92,06580
0,5355;92,46934;-0,01690;92,46934
0,5381;92,87370;-0,01675;92,87370
0,5407;93,27853;-0,01660;93,27853
0,5434;93,68371;-0,01630;93,68371
0,5460;94,08877;-0,01616;94,08877
0,5486;94,49371;-0,01586;94,49371
0,5513;94,89865;-0,01571;94,89865
0,5539;95,30406;-0,01556;95,30406
0,5565;95,71017;-0,01527;95,71017
0,5591;96,11732;-0,01513;96,11732
0,5618;96,52552;-0,01483;96,52552
0,5644;96,93489;-0,01468;96,93489
0,5670;97,34542;-0,01454;97,34542
0,5697;97,75688;-0,01425;97,75688
0,5723;98,16939;-0,01410;98,16939
0,5749;98,58294;-0,01380;98,58294
0,5775;98,99790;-0,01366;98,99790
0,5802;99,41436;-0,01352;99,41436
0,5828;99,83211;-0,01322;99,83211
0,5854;100,25125;-0,01307;100,25125
0,5881;100,67133;-0,01279;100,67133
0,5907;101,09210;-0,01264;101,09210
0,5933;101,51276;-0,01249;101,51276
0,5959;101,93283;-0,01219;101,93283
0,5986;102,35186;-0,01205;102,35186
0,6012;102,76949;-0,01176;102,76949
0,6038;103,18467;-0,01161;103,18467
0,6064;103,59532;-0,01146;103,59532
0,6091;103,99956;-0,01117;103,99956
0,6119;104,42499;-0,01102;104,42499
0,6147;104,84274;-0,01072;104,84274
0,6175;105,25408;-0,01058;105,25408
0,6203;105,66042;-0,01029;105,66042
0,6232;106,06269;-0,01014;106,06269
0,6262;106,48730;-0,00984;106,48730
0,6292;106,90610;-0,00955;106,90610
0,6322;107,31814;-0,00940;107,31814
0,6352;107,72122;-0,00909;107,72122
0,6384;108,13780;-0,00894;108,13780
0,6416;108,54135;-0,00865;108,54135
0,6449;108,95595;-0,00834;108,95595
0,6483;109,36113;-0,00805;109,36113
0,6519;109,78272;-0,00774;109,78272
0,6554;110,20232;-0,00744;110,20232
0,6590;110,62240;-0,00728;110,62240
0,6624;111,02257;-0,00696;111,02257
0,6658;111,42577;-0,00665;111,42577
0,6692;111,83304;-0,00633;111,83304
0,6725;112,24473;-0,00602;112,24473
0,6759;112,66085;-0,00585;112,66085
0,6793;113,08150;-0,00553;113,08150
0,6825;113,48156;-0,00520;113,48156
0,6859;113,90489;-0,00486;113,90489
0,6892;114,32485;-0,00452;114,32485
0,6926;114,73806;-0,00434;114,73806
0,6960;115,13893;-0,00400;115,13893
0,6996;115,54375;-0,00364;115,54375
0,7033;115,94509;-0,00328;115,94509
0,7075;116,35597;-0,00292;116,35597
0,7118;116,75672;-0,00235;116,75672
0,7165;117,17260;-0,00197;117,17260
0,7212;117,58453;-0,00138;117,58453
0,7257;117,98819;-0,00097;117,98819
0,7307;118,39616;-0,00034;118,39616
0,7407;118,79843;0,00077;118,79843
1,2731;118,97581;0,60077;118,97581
1,2968;119,38437;0,62816;119,38437
1,3020;119,79431;0,63474;119,79431
1,3067;120,20135;0,63907;120,20135
1,3116;120,61351;0,64551;120,61351
1,3176;121,02055;0,65187;121,02055
1,3276;121,42654;0,66445;121,42654
1,3383;121,82671;0,67494;121,82671
1,3452;122,23479;0,68342;122,23479
1,3518;122,63625;0,68989;122,63625
1,3600;123,03793;0,70099;123,03793
1,3721;123,43845;0,71505;123,43845
1,3807;123,84223;0,72755;123,84223
1,3867;124,25159;0,73547;124,25159
1,3912;124,65200;0,74093;124,65200
1,3951;125,06055;0,74940;125,06055
1,3991;125,46514;0,75524;125,46514
1,4042;125,87299;0,76124;125,87299
1,5866;126,25850;1,36147;126,25850
1,6786;126,29353;1,96707;126,29353
1,7500;126,31367;2,58258;126,31367
1,8101;126,32880;3,18573;126,32880
1,8664;126,34079;3,80023;126,34079
1,9208;126,35057;4,41746;126,35057
1,9753;126,36139;5,03772;126,36139
2,0297;126,37164;5,64482;126,37164
2,0860;126,38037;6,24649;126,38037
2,1461;126,38677;6,84979;126,38677
2,2036;126,39398;7,37496;126,39398
2,2118;126,39352;7,45854;126,39352
2,2137;126,39352;7,47512;126,39352
