Part protocol
Network name;Part_OP10_MP-001_2020-08-26_08-44-54_0009_OK.csv
Protocol version;2.01.00

Index;Result information;Process values - curve related;Process values - EO related;Evaluation objects settings;Switch signal settings;Device information;Channel-X settings;Channel-Y settings;Cycle control settings;Evaluation settings;Trigger Y settings;Block settings;Measuring curve;Measuring points;Sequence;
Line;10;30;40;70;100;120;150;190;220;240;250;260;270;280;600;



Result information
Date;2020/08/26
Time;08:44:54
Cycle number;9
Total result;OK
Triggered switch signals
Part serial number;0009
Measuring program name;D57-Left
Measuring program number;1
Zero X offset;0,00;mm
Tara Y offset;0,0;kN









Process values - curve related
Block X;126,34;mm;XMIN-X;-0,14;mm
Block Y;7,5;kN;XMIN-Y;0,0;kN
Ref X;-;mm;XMAX-X;126,34;mm
Peak-peak X;126,48;mm;XMAX-Y;7,5;kN
Peak-peak Y;7,5;kN;YMIN-X;-0,14;mm
;;;YMIN-Y;0,0;kN
;;;YMAX-X;126,34;mm
;;;YMAX-Y;7,5;kN

Process values - EO related;Result;Entry;Exit;XMIN-X;XMIN-Y;XMAX-X;XMAX-Y;YMIN-Y;YMIN-X;YMAX-Y;YMAX-X
;;;;mm;kN;mm;kN;kN;mm;kN;mm
EO-01;OK;0,7;0,8;;;;;0,7;124,50;0,8;125,55;;;;;;
EO-02;OK;126,30;126,31;126,30;4,5;126,31;5,0;;;;;;;;;;
EO-03;None;
EO-04;None;
























Evaluation objects settings;Reaction;X reference;Y-Reference;XMin;XMax;YMin;YMax;Entry;Exit;Curve part;Catch zone X;Catch zone Y
EO-01;UNI-BOX;ABSOLUTE;-;124,50;125,70;0,5;3,0;LEFT;RIGHT;ANY;+50%;+50%
EO-02;UNI-BOX;ABSOLUTE;-;125,80;127,20;4,5;5,5;BELOW;ABOVE;ANY;+50%;+50%
EO-03;OFF
EO-04;OFF

























Switch signal settings;Channel;Threshold at;;Trigger from;Reference;Latch until
Type S1;OFF
Type S2;OFF

















Device information
Device type;maXYmos BL
Device type number;5867B1011
Device serial number;5182443
Firmware version;2.3.2 (r22473-BL_v2.3.x)
-
-
-
-
-
IP Address;10.0.0.18
Network name;OP10
Profibus address;10
-
-
-
Station name;OP10
Company name;
Comment;











Channel-X settings
Use the settings from global setup;True
Sensor-X type;Â±10V
Unit;mm
Used range from;0,00;mm
Used range to;200,00;mm
Decimal places;XXXX.XX
Scaling by;Teach-In
Point 1;0,00;mm;-0,350;%
Point 2;200,00;mm;10,000;%
Invert signal;FALSE
Filter;20 Hz
Test point;0,00;mm
Tolerance;2,00;mm
Enable sensor test by dig-input;FALSE
Zoom from;110,00;mm
Zoom to;133,11;mm























Channel-Y settings
Use the settings from global setup;True
Sensor-Y type;Strain Gage
Unit;kN
Used range from;0,0;kN
Used range to;20,0;kN
Decimal places;XXXXX.X
Scaling by;Teach-In
Point 1;0,0;kN;-0,01562;%
Point 2;20,0;kN;2,00000;%
Invert signal;FALSE
Filter;1 Hz
Piezo reset;-
Test point;0,0;kN
Tolerance;0,1;kN
Enable sensor test by dig-input;FALSE
Zoom from;0,0;kN
Zoom to;6,0;kN












Cycle control settings
Use the settings from global setup;True
Measuring function;Y (X)
Delta-X;Automatic
START condition;Dig-Input
STOP condition;Dig-Input
Cycle time out;20,00;s
Turning point RIGHT;YMAX
Turning point LEFT;NONE
Cut curve at;NONE










Evaluation settings
Capture only first NOK-EO for statistics;False
Hysteresis-X;0,0;%
Hysteresis-Y;100,0;%






Trigger Y settings
Threshold;1,9;kN
Value X at TRIGGER Y;0,00;mm
Approach from;BELOW






Block settings
Value X at block;XMAX
Block at;0,00;mm







Measuring curve
Number of measuring points;317
Ref. Graph on;ABSOLUTE
Curve segments;0;316;315;317;


Time;X(ABSOLUTE);Y;X (ABSOLUTE)


s;mm;kN;mm
0,0000;-0,14151;-0,03779;-0,14151
0,0957;0,26576;-0,03774;0,26576
0,0997;0,69037;-0,03774;0,69037
0,1025;1,11941;-0,03774;1,11941
0,1048;1,54193;-0,03773;1,54193
0,1066;1,94885;-0,03773;1,94885
0,1083;2,35752;-0,03773;2,35752
0,1100;2,80611;-0,03772;2,80611
0,1115;3,23759;-0,03772;3,23759
0,1128;3,64009;-0,03772;3,64009
0,1141;4,06540;-0,03772;4,06540
0,1155;4,51353;-0,03772;4,51353
0,1166;4,91451;-0,03772;4,91451
0,1177;5,32912;-0,03771;5,32912
0,1188;5,75373;-0,03771;5,75373
0,1200;6,18381;-0,03771;6,18381
0,1211;6,61413;-0,03770;6,61413
0,1222;7,04003;-0,03770;7,04003
0,1233;7,45754;-0,03769;7,45754
0,1245;7,86376;-0,03769;7,86376
0,1258;8,32155;-0,03768;8,32155
0,1271;8,76083;-0,03767;8,76083
0,1284;9,18125;-0,03767;9,18125
0,1297;9,58247;-0,03765;9,58247
0,1312;10,01709;-0,03764;10,01709
0,1327;10,42716;-0,03762;10,42716
0,1344;10,86236;-0,03761;10,86236
0,1361;11,27662;-0,03759;11,27662
0,1378;11,67760;-0,03759;11,67760
0,1397;12,11444;-0,03758;12,11444
0,1416;12,54650;-0,03755;12,54650
0,1434;12,97682;-0,03753;12,97682
0,1453;13,40970;-0,03750;13,40970
0,1472;13,84921;-0,03747;13,84921
0,1489;14,25218;-0,03745;14,25218
0,1506;14,66189;-0,03742;14,66189
0,1523;15,07708;-0,03738;15,07708
0,1539;15,49727;-0,03734;15,49727
0,1556;15,92293;-0,03731;15,92293
0,1573;16,35453;-0,03727;16,35453
0,1590;16,79171;-0,03722;16,79171
0,1607;17,23332;-0,03718;17,23332
0,1624;17,67784;-0,03713;17,67784
0,1641;18,12515;-0,03713;18,12515
0,1656;18,52555;-0,03709;18,52555
0,1671;18,92863;-0,03703;18,92863
0,1686;19,33427;-0,03697;19,33427
0,1701;19,74166;-0,03692;19,74166
0,1716;20,14998;-0,03692;20,14998
0,1731;20,55923;-0,03685;20,55923
0,1746;20,96976;-0,03679;20,96976
0,1761;21,38215;-0,03672;21,38215
0,1776;21,79664;-0,03666;21,79664
0,1791;22,21264;-0,03666;22,21264
0,1806;22,62945;-0,03659;22,62945
0,1821;23,04650;-0,03651;23,04650
0,1836;23,46401;-0,03643;23,46401
0,1851;23,88257;-0,03635;23,88257
0,1866;24,30253;-0,03635;24,30253
0,1881;24,72377;-0,03627;24,72377
0,1896;25,14571;-0,03619;25,14571
0,1911;25,56776;-0,03610;25,56776
0,1926;25,98935;-0,03600;25,98935
0,1941;26,41070;-0,03600;26,41070
0,1956;26,83229;-0,03591;26,83229
0,1971;27,25446;-0,03582;27,25446
0,1986;27,67686;-0,03572;27,67686
0,2001;28,09868;-0,03561;28,09868
0,2016;28,51934;-0,03561;28,51934
0,2031;28,93848;-0,03550;28,93848
0,2046;29,35588;-0,03540;29,35588
0,2061;29,77211;-0,03529;29,77211
0,2076;30,18707;-0,03518;30,18707
0,2091;30,60050;-0,03518;30,60050
0,2106;31,01173;-0,03506;31,01173
0,2121;31,42028;-0,03494;31,42028
0,2136;31,82616;-0,03482;31,82616
0,2152;32,22947;-0,03470;32,22947
0,2167;32,63057;-0,03470;32,63057
0,2183;33,07916;-0,03458;33,07916
0,2200;33,52473;-0,03445;33,52473
0,2217;33,96692;-0,03432;33,96692
0,2234;34,40550;-0,03419;34,40550
0,2251;34,84082;-0,03405;34,84082
0,2268;35,27312;-0,03392;35,27312
0,2285;35,70227;-0,03378;35,70227
0,2302;36,12828;-0,03364;36,12828
0,2319;36,55057;-0,03349;36,55057
0,2335;36,96948;-0,03349;36,96948
0,2352;37,38513;-0,03336;37,38513
0,2369;37,79776;-0,03321;37,79776
0,2386;38,20735;-0,03306;38,20735
0,2403;38,61393;-0,03291;38,61393
0,2420;39,01759;-0,03276;39,01759
0,2437;39,41857;-0,03261;39,41857
0,2456;39,86146;-0,03246;39,86146
0,2474;40,30167;-0,03230;40,30167
0,2493;40,73921;-0,03214;40,73921
0,2512;41,17371;-0,03199;41,17371
0,2531;41,60543;-0,03183;41,60543
0,2550;42,03435;-0,03167;42,03435
0,2568;42,46059;-0,03150;42,46059
0,2587;42,88404;-0,03135;42,88404
0,2606;43,30505;-0,03118;43,30505
0,2625;43,72361;-0,03101;43,72361
0,2643;44,14031;-0,03085;44,14031
0,2662;44,55514;-0,03068;44,55514
0,2681;44,96847;-0,03051;44,96847
0,2700;45,38016;-0,03035;45,38016
0,2718;45,79046;-0,03018;45,79046
0,2737;46,19948;-0,03000;46,19948
0,2756;46,60721;-0,02984;46,60721
0,2775;47,01343;-0,02967;47,01343
0,2794;47,41791;-0,02949;47,41791
0,2812;47,82076;-0,02932;47,82076
0,2831;48,22186;-0,02915;48,22186
0,2852;48,66137;-0,02898;48,66137
0,2872;49,09914;-0,02880;49,09914
0,2893;49,53539;-0,02862;49,53539
0,2914;49,97013;-0,02846;49,97013
0,2934;50,40359;-0,02828;50,40359
0,2955;50,83589;-0,02811;50,83589
0,2976;51,26749;-0,02775;51,26749
0,2996;51,69839;-0,02758;51,69839
0,3017;52,12882;-0,02740;52,12882
0,3038;52,55879;-0,02723;52,55879
0,3058;52,98841;-0,02705;52,98841
0,3079;53,41768;-0,02688;53,41768
0,3100;53,84636;-0,02670;53,84636
0,3120;54,27435;-0,02651;54,27435
0,3141;54,70165;-0,02634;54,70165
0,3162;55,12824;-0,02616;55,12824
0,3182;55,55402;-0,02581;55,55402
0,3203;55,97909;-0,02563;55,97909
0,3224;56,40348;-0,02546;56,40348
0,3244;56,82727;-0,02528;56,82727
0,3265;57,25038;-0,02511;57,25038
0,3285;57,67289;-0,02492;57,67289
0,3306;58,09471;-0,02475;58,09471
0,3327;58,51584;-0,02457;58,51584
0,3347;58,93614;-0,02439;58,93614
0,3368;59,35540;-0,02422;59,35540
0,3389;59,77362;-0,02387;59,77362
0,3409;60,19078;-0,02369;60,19078
0,3430;60,60678;-0,02351;60,60678
0,3451;61,02138;-0,02334;61,02138
0,3471;61,43482;-0,02317;61,43482
0,3492;61,84698;-0,02300;61,84698
0,3513;62,25751;-0,02282;62,25751
0,3533;62,66641;-0,02264;62,66641
0,3554;63,07380;-0,02247;63,07380
0,3575;63,47967;-0,02230;63,47967
0,3595;63,88438;-0,02195;63,88438
0,3616;64,28816;-0,02178;64,28816
0,3637;64,69089;-0,02161;64,69089
0,3657;65,09269;-0,02144;65,09269
0,3678;65,49345;-0,02127;65,49345
0,3700;65,92900;-0,02110;65,92900
0,3723;66,36269;-0,02092;66,36269
0,3745;66,79453;-0,02058;66,79453
0,3768;67,22473;-0,02041;67,22473
0,3790;67,65376;-0,02025;67,65376
0,3813;68,08164;-0,02008;68,08164
0,3836;68,50858;-0,01991;68,50858
0,3858;68,93470;-0,01957;68,93470
0,3881;69,35990;-0,01940;69,35990
0,3903;69,78405;-0,01924;69,78405
0,3926;70,20703;-0,01907;70,20703
0,3948;70,62897;-0,01891;70,62897
0,3971;71,04951;-0,01858;71,04951
0,3993;71,46865;-0,01841;71,46865
0,4016;71,88663;-0,01825;71,88663
0,4038;72,30345;-0,01809;72,30345
0,4061;72,71910;-0,01792;72,71910
0,4083;73,13405;-0,01760;73,13405
0,4106;73,54842;-0,01743;73,54842
0,4128;73,96209;-0,01728;73,96209
0,4151;74,37530;-0,01711;74,37530
0,4173;74,78769;-0,01695;74,78769
0,4196;75,19939;-0,01663;75,19939
0,4219;75,61003;-0,01647;75,61003
0,4241;76,01952;-0,01631;76,01952
0,4264;76,42772;-0,01616;76,42772
0,4286;76,83487;-0,01600;76,83487
0,4309;77,24144;-0,01568;77,24144
0,4331;77,64755;-0,01553;77,64755
0,4354;78,05296;-0,01537;78,05296
0,4376;78,45755;-0,01521;78,45755
0,4399;78,86133;-0,01505;78,86133
0,4421;79,26418;-0,01474;79,26418
0,4444;79,66598;-0,01458;79,66598
0,4466;80,06673;-0,01443;80,06673
0,4491;80,49973;-0,01428;80,49973
0,4515;80,93144;-0,01396;80,93144
0,4540;81,36164;-0,01381;81,36164
0,4564;81,79045;-0,01366;81,79045
0,4588;82,21762;-0,01351;82,21762
0,4613;82,64317;-0,01320;82,64317
0,4637;83,06696;-0,01305;83,06696
0,4662;83,48890;-0,01290;83,48890
0,4686;83,90886;-0,01259;83,90886
0,4710;84,32672;-0,01244;84,32672
0,4735;84,74226;-0,01229;84,74226
0,4759;85,15570;-0,01199;85,15570
0,4784;85,56727;-0,01184;85,56727
0,4808;85,97722;-0,01169;85,97722
0,4832;86,38577;-0,01154;86,38577
0,4857;86,79281;-0,01124;86,79281
0,4881;87,19857;-0,01109;87,19857
0,4906;87,60305;-0,01094;87,60305
0,4930;88,00613;-0,01065;88,00613
0,4954;88,40758;-0,01050;88,40758
0,4981;88,83813;-0,01035;88,83813
0,5007;89,26670;-0,01006;89,26670
0,5033;89,69306;-0,00991;89,69306
0,5060;90,11744;-0,00962;90,11744
0,5086;90,53984;-0,00947;90,53984
0,5112;90,96073;-0,00932;90,96073
0,5138;91,38046;-0,00904;91,38046
0,5165;91,79925;-0,00889;91,79925
0,5191;92,21758;-0,00860;92,21758
0,5217;92,63532;-0,00845;92,63532
0,5244;93,05214;-0,00831;93,05214
0,5270;93,46791;-0,00802;93,46791
0,5296;93,88240;-0,00788;93,88240
0,5322;94,29560;-0,00759;94,29560
0,5349;94,70765;-0,00745;94,70765
0,5375;95,11887;-0,00731;95,11887
0,5401;95,52987;-0,00702;95,52987
0,5428;95,94063;-0,00687;95,94063
0,5454;96,35104;-0,00658;96,35104
0,5480;96,76076;-0,00645;96,76076
0,5506;97,16989;-0,00630;97,16989
0,5533;97,57844;-0,00602;97,57844
0,5559;97,98688;-0,00587;97,98688
0,5585;98,39520;-0,00558;98,39520
0,5612;98,80328;-0,00545;98,80328
0,5638;99,21102;-0,00531;99,21102
0,5664;99,61806;-0,00502;99,61806
0,5690;100,02416;-0,00488;100,02416
0,5717;100,42946;-0,00459;100,42946
0,5743;100,83382;-0,00446;100,83382
0,5769;101,23725;-0,00431;101,23725
0,5796;101,64009;-0,00403;101,64009
0,5822;102,04248;-0,00388;102,04248
0,5848;102,44439;-0,00360;102,44439
0,5874;102,84573;-0,00346;102,84573
0,5901;103,24590;-0,00332;103,24590
0,5929;103,67144;-0,00303;103,67144
0,5957;104,09163;-0,00289;104,09163
0,5985;104,50507;-0,00260;104,50507
0,6013;104,91153;-0,00246;104,91153
0,6041;105,31263;-0,00218;105,31263
0,6072;105,73631;-0,00204;105,73631
0,6102;106,15662;-0,00175;106,15662
0,6132;106,57367;-0,00147;106,57367
0,6162;106,98711;-0,00133;106,98711
0,6192;107,39729;-0,00104;107,39729
0,6222;107,80433;-0,00090;107,80433
0,6252;108,20787;-0,00061;108,20787
0,6284;108,63249;-0,00032;108,63249
0,6316;109,05303;-0,00018;109,05303
0,6348;109,47008;0,00012;109,47008
0,6379;109,88421;0,00041;109,88421
0,6411;110,29626;0,00070;110,29626
0,6443;110,70632;0,00086;110,70632
0,6475;111,11429;0,00115;111,11429
0,6507;111,52075;0,00145;111,52075
0,6539;111,92697;0,00161;111,92697
0,6571;112,33436;0,00191;112,33436
0,6603;112,74361;0,00222;112,74361
0,6635;113,15518;0,00238;113,15518
0,6667;113,56990;0,00269;113,56990
0,6699;113,98823;0,00302;113,98823
0,6730;114,41005;0,00334;114,41005
0,6761;114,81022;0,00350;114,81022
0,6791;115,21202;0,00383;115,21202
0,6821;115,61289;0,00400;115,61289
0,6853;116,03390;0,00434;116,03390
0,6884;116,44873;0,00467;116,44873
0,6916;116,85810;0,00485;116,85810
0,6948;117,26572;0,00520;117,26572
0,6980;117,67218;0,00556;117,67218
0,7016;118,09143;0,00592;118,09143
0,7061;118,49195;0,00629;118,49195
0,7572;118,89201;0,01328;118,89201
1,2569;119,01911;0,61482;119,01911
1,2763;119,42289;0,63771;119,42289
1,2813;119,83016;0,64436;119,83016
1,2858;120,24570;0,64873;120,24570
1,2902;120,65704;0,65306;120,65704
1,2948;121,06978;0,65950;121,06978
1,3009;121,47519;0,66585;121,47519
1,3093;121,87664;0,67423;121,87664
1,3196;122,28182;0,68674;122,28182
1,3266;122,69060;0,69510;122,69060
1,3324;123,09950;0,70144;123,09950
1,3380;123,51015;0,70784;123,51015
1,3438;123,91742;0,71435;123,91742
1,3508;124,32178;0,72323;124,32178
1,3585;124,72661;0,73237;124,72661
1,3666;125,13621;0,74182;125,13621
1,3737;125,54662;0,75161;125,54662
1,3821;125,95249;0,76179;125,95249
1,5742;126,18994;1,36810;126,18994
1,6606;126,22800;1,97139;126,22800
1,7282;126,24558;2,58602;126,24558
1,7864;126,26467;3,19305;126,26467
1,8408;126,28096;3,80207;126,28096
1,8934;126,29482;4,40648;126,29482
1,9459;126,30517;5,00901;126,30517
2,0004;126,31670;5,61603;126,31670
2,0586;126,32298;6,23401;126,32298
2,1205;126,33346;6,84904;126,33346
2,1862;126,34219;7,44908;126,34219
2,1919;126,34324;7,49796;126,34324
2,1921;126,34335;7,49796;126,34335
