Part protocol
Network name;Part_OP10_MP-002_2020-08-26_16-24-12_0041_OK.csv
Protocol version;2.01.00

Index;Result information;Process values - curve related;Process values - EO related;Evaluation objects settings;Switch signal settings;Device information;Channel-X settings;Channel-Y settings;Cycle control settings;Evaluation settings;Trigger Y settings;Block settings;Measuring curve;Measuring points;Sequence;
Line;10;30;40;70;100;120;150;190;220;240;250;260;270;280;570;



Result information
Date;2020/08/26
Time;16:24:12
Cycle number;41
Total result;OK
Triggered switch signals
Part serial number;0041
Measuring program name;D57-Right
Measuring program number;2
Zero X offset;0,00;mm
Tara Y offset;0,0;kN









Process values - curve related
Block X;116,10;mm;XMIN-X;-0,05;mm
Block Y;4,7;kN;XMIN-Y;0,0;kN
Ref X;-;mm;XMAX-X;116,10;mm
Peak-peak X;116,15;mm;XMAX-Y;4,7;kN
Peak-peak Y;4,8;kN;YMIN-X;-0,05;mm
;;;YMIN-Y;0,0;kN
;;;YMAX-X;116,10;mm
;;;YMAX-Y;4,7;kN

Process values - EO related;Result;Entry;Exit;XMIN-X;XMIN-Y;XMAX-X;XMAX-Y;YMIN-Y;YMIN-X;YMAX-Y;YMAX-X
;;;;mm;kN;mm;kN;kN;mm;kN;mm
EO-01;OK;0,7;0,7;;;;;0,7;115,00;0,7;115,33;;;;;;
EO-02;OK;;116,08;116,06;2,3;116,07;3,1;2,3;116,06;;;;;;;;
EO-03;None;
EO-04;None;
























Evaluation objects settings;Reaction;X reference;Y-Reference;XMin;XMax;YMin;YMax;Entry;Exit;Curve part;Catch zone X;Catch zone Y
EO-01;UNI-BOX;ABSOLUTE;-;115,00;115,50;0,4;2,0;LEFT;RIGHT;ANY;+50%;+50%
EO-02;UNI-BOX;ABSOLUTE;-;115,40;117,10;2,3;3,3;ANY;ABOVE;ANY;+50%;+50%
EO-03;OFF
EO-04;OFF

























Switch signal settings;Channel;Threshold at;;Trigger from;Reference;Latch until
Type S1;OFF
Type S2;OFF

















Device information
Device type;maXYmos BL
Device type number;5867B1011
Device serial number;5182443
Firmware version;2.3.2 (r22473-BL_v2.3.x)
-
-
-
-
-
IP Address;10.0.0.18
Network name;OP10
Profibus address;10
-
-
-
Station name;OP10
Company name;
Comment;











Channel-X settings
Use the settings from global setup;True
Sensor-X type;Â±10V
Unit;mm
Used range from;0,00;mm
Used range to;200,00;mm
Decimal places;XXXX.XX
Scaling by;Teach-In
Point 1;0,00;mm;-0,350;%
Point 2;200,00;mm;10,000;%
Invert signal;FALSE
Filter;20 Hz
Test point;0,00;mm
Tolerance;2,00;mm
Enable sensor test by dig-input;FALSE
Zoom from;100,00;mm
Zoom to;120,00;mm























Channel-Y settings
Use the settings from global setup;True
Sensor-Y type;Strain Gage
Unit;kN
Used range from;0,0;kN
Used range to;20,0;kN
Decimal places;XXXXX.X
Scaling by;Teach-In
Point 1;0,0;kN;-0,01562;%
Point 2;20,0;kN;2,00000;%
Invert signal;FALSE
Filter;1 Hz
Piezo reset;-
Test point;0,0;kN
Tolerance;0,1;kN
Enable sensor test by dig-input;FALSE
Zoom from;0,0;kN
Zoom to;5,0;kN












Cycle control settings
Use the settings from global setup;True
Measuring function;Y (X)
Delta-X;Automatic
START condition;Dig-Input
STOP condition;Dig-Input
Cycle time out;20,00;s
Turning point RIGHT;YMAX
Turning point LEFT;NONE
Cut curve at;NONE










Evaluation settings
Capture only first NOK-EO for statistics;False
Hysteresis-X;0,0;%
Hysteresis-Y;100,0;%






Trigger Y settings
Threshold;1,8;kN
Value X at TRIGGER Y;0,00;mm
Approach from;BELOW






Block settings
Value X at block;XMAX
Block at;0,00;mm







Measuring curve
Number of measuring points;287
Ref. Graph on;ABSOLUTE
Curve segments;0;286;285;287;


Time;X(ABSOLUTE);Y;X (ABSOLUTE)


s;mm;kN;mm
0,0000;-0,05049;-0,03473;-0,05049
0,1079;0,36609;-0,03473;0,36609
0,1113;0,78954;-0,03473;0,78954
0,1137;1,22615;-0,03472;1,22615
0,1156;1,64121;-0,03472;1,64121
0,1173;2,07433;-0,03472;2,07433
0,1188;2,50371;-0,03471;2,50371
0,1201;2,90807;-0,03470;2,90807
0,1214;3,33141;-0,03470;3,33141
0,1227;3,76580;-0,03470;3,76580
0,1240;4,20380;-0,03468;4,20380
0,1254;4,64028;-0,03467;4,64028
0,1267;5,07130;-0,03467;5,07130
0,1280;5,49417;-0,03466;5,49417
0,1293;5,90644;-0,03464;5,90644
0,1306;6,30696;-0,03462;6,30696
0,1321;6,75032;-0,03462;6,75032
0,1336;7,17993;-0,03460;7,17993
0,1351;7,59826;-0,03458;7,59826
0,1366;8,00786;-0,03455;8,00786
0,1381;8,41071;-0,03452;8,41071
0,1398;8,85825;-0,03452;8,85825
0,1415;9,30242;-0,03449;9,30242
0,1432;9,74554;-0,03446;9,74554
0,1449;10,18971;-0,03442;10,18971
0,1466;10,63597;-0,03437;10,63597
0,1483;11,08491;-0,03433;11,08491
0,1498;11,48637;-0,03428;11,48637
0,1513;11,88980;-0,03423;11,88980
0,1528;12,29439;-0,03423;12,29439
0,1543;12,69980;-0,03417;12,69980
0,1558;13,10497;-0,03410;13,10497
0,1573;13,50922;-0,03404;13,50922
0,1588;13,91195;-0,03398;13,91195
0,1603;14,31235;-0,03398;14,31235
0,1620;14,75931;-0,03389;14,75931
0,1637;15,20185;-0,03382;15,20185
0,1654;15,63974;-0,03373;15,63974
0,1670;16,07238;-0,03364;16,07238
0,1687;16,49956;-0,03355;16,49956
0,1704;16,92103;-0,03345;16,92103
0,1721;17,33668;-0,03335;17,33668
0,1738;17,74651;-0,03323;17,74651
0,1755;18,15087;-0,03323;18,15087
0,1774;18,59399;-0,03312;18,59399
0,1792;19,03141;-0,03300;19,03141
0,1811;19,46370;-0,03287;19,46370
0,1830;19,89123;-0,03274;19,89123
0,1849;20,31456;-0,03261;20,31456
0,1868;20,73370;-0,03247;20,73370
0,1886;21,14924;-0,03232;21,14924
0,1905;21,56163;-0,03216;21,56163
0,1924;21,97135;-0,03200;21,97135
0,1943;22,37862;-0,03184;22,37862
0,1961;22,78391;-0,03167;22,78391
0,1980;23,18722;-0,03149;23,18722
0,1999;23,58856;-0,03131;23,58856
0,2020;24,02819;-0,03093;24,02819
0,2040;24,46607;-0,03073;24,46607
0,2061;24,90244;-0,03052;24,90244
0,2082;25,33776;-0,03031;25,33776
0,2102;25,77204;-0,03010;25,77204
0,2123;26,20550;-0,02987;26,20550
0,2144;26,63814;-0,02963;26,63814
0,2164;27,07020;-0,02940;27,07020
0,2185;27,50215;-0,02916;27,50215
0,2205;27,93410;-0,02891;27,93410
0,2226;28,36663;-0,02839;28,36663
0,2247;28,79962;-0,02812;28,79962
0,2267;29,23331;-0,02785;29,23331
0,2288;29,66759;-0,02757;29,66759
0,2309;30,10256;-0,02728;30,10256
0,2329;30,53812;-0,02700;30,53812
0,2350;30,97460;-0,02669;30,97460
0,2371;31,41190;-0,02639;31,41190
0,2391;31,85014;-0,02608;31,85014
0,2412;32,28953;-0,02576;32,28953
0,2431;32,68994;-0,02544;32,68994
0,2450;33,09127;-0,02511;33,09127
0,2468;33,49342;-0,02477;33,49342
0,2487;33,89662;-0,02443;33,89662
0,2506;34,30051;-0,02409;34,30051
0,2525;34,70511;-0,02373;34,70511
0,2543;35,11028;-0,02338;35,11028
0,2562;35,51604;-0,02301;35,51604
0,2581;35,92191;-0,02264;35,92191
0,2600;36,32790;-0,02226;36,32790
0,2619;36,73424;-0,02188;36,73424
0,2637;37,14081;-0,02149;37,14081
0,2656;37,54762;-0,02109;37,54762
0,2675;37,95442;-0,02069;37,95442
0,2694;38,36123;-0,02028;38,36123
0,2712;38,76780;-0,01988;38,76780
0,2731;39,17403;-0,01946;39,17403
0,2750;39,58025;-0,01903;39,58025
0,2769;39,98647;-0,01861;39,98647
0,2787;40,39258;-0,01817;40,39258
0,2806;40,79880;-0,01773;40,79880
0,2825;41,20491;-0,01729;41,20491
0,2844;41,61078;-0,01684;41,61078
0,2863;42,01654;-0,01639;42,01654
0,2881;42,42172;-0,01592;42,42172
0,2900;42,82631;-0,01546;42,82631
0,2919;43,23032;-0,01499;43,23032
0,2938;43,63363;-0,01452;43,63363
0,2956;44,03590;-0,01404;44,03590
0,2975;44,43712;-0,01355;44,43712
0,2996;44,87698;-0,01257;44,87698
0,3017;45,31521;-0,01207;45,31521
0,3037;45,75182;-0,01157;45,75182
0,3058;46,18644;-0,01106;46,18644
0,3078;46,61897;-0,01056;46,61897
0,3099;47,04928;-0,01005;47,04928
0,3120;47,47751;-0,00953;47,47751
0,3140;47,90328;-0,00900;47,90328
0,3161;48,32673;-0,00848;48,32673
0,3182;48,74786;-0,00794;48,74786
0,3202;49,16688;-0,00688;49,16688
0,3223;49,58370;-0,00634;49,58370
0,3244;49,99819;-0,00580;49,99819
0,3264;50,41046;-0,00525;50,41046
0,3285;50,82053;-0,00470;50,82053
0,3306;51,22838;-0,00415;51,22838
0,3326;51,63425;-0,00359;51,63425
0,3347;52,03815;-0,00303;52,03815
0,3368;52,44030;-0,00247;52,44030
0,3388;52,84070;-0,00191;52,84070
0,3411;53,27567;-0,00077;53,27567
0,3433;53,70855;-0,00020;53,70855
0,3456;54,13968;0,00038;54,13968
0,3478;54,56895;0,00095;54,56895
0,3501;54,99671;0,00152;54,99671
0,3523;55,42319;0,00269;55,42319
0,3546;55,84815;0,00327;55,84815
0,3568;56,27160;0,00386;56,27160
0,3591;56,69365;0,00445;56,69365
0,3614;57,11442;0,00503;57,11442
0,3636;57,53403;0,00622;57,53403
0,3659;57,95294;0,00681;57,95294
0,3681;58,37127;0,00740;58,37127
0,3704;58,78913;0,00800;58,78913
0,3726;59,20653;0,00860;59,20653
0,3749;59,62346;0,00979;59,62346
0,3771;60,04005;0,01039;60,04005
0,3794;60,45616;0,01099;60,45616
0,3816;60,87205;0,01159;60,87205
0,3839;61,28735;0,01219;61,28735
0,3861;61,70184;0,01339;61,70184
0,3884;62,11516;0,01399;62,11516
0,3906;62,52732;0,01460;62,52732
0,3929;62,93831;0,01520;62,93831
0,3951;63,34850;0,01580;63,34850
0,3974;63,75798;0,01699;63,75798
0,3997;64,16688;0,01759;64,16688
0,4019;64,57508;0,01820;64,57508
0,4042;64,98270;0,01880;64,98270
0,4064;65,38951;0,01940;65,38951
0,4087;65,79538;0,02059;65,79538
0,4109;66,20055;0,02120;66,20055
0,4132;66,60480;0,02179;66,60480
0,4154;67,00835;0,02239;67,00835
0,4177;67,41119;0,02298;67,41119
0,4199;67,81346;0,02418;67,81346
0,4222;68,21503;0,02477;68,21503
0,4244;68,61601;0,02536;68,61601
0,4267;69,01618;0,02594;69,01618
0,4291;69,44848;0,02713;69,44848
0,4316;69,87949;0,02771;69,87949
0,4340;70,30876;0,02830;70,30876
0,4364;70,73664;0,02888;70,73664
0,4389;71,16335;0,03005;71,16335
0,4413;71,58877;0,03062;71,58877
0,4438;72,01269;0,03120;72,01269
0,4462;72,43521;0,03235;72,43521
0,4487;72,85598;0,03292;72,85598
0,4511;73,27512;0,03349;73,27512
0,4535;73,69252;0,03463;73,69252
0,4560;74,10840;0,03519;74,10840
0,4584;74,52231;0,03576;74,52231
0,4609;74,93435;0,03631;74,93435
0,4633;75,34407;0,03743;75,34407
0,4657;75,75157;0,03798;75,75157
0,4682;76,15686;0,03853;76,15686
0,4706;76,56029;0,03963;76,56029
0,4731;76,96198;0,04017;76,96198
0,4755;77,36215;0,04072;77,36215
0,4781;77,79165;0,04179;77,79165
0,4808;78,21976;0,04232;78,21976
0,4834;78,64635;0,04286;78,64635
0,4860;79,07178;0,04391;79,07178
0,4886;79,49651;0,04444;79,49651
0,4913;79,92077;0,04548;79,92077
0,4939;80,34445;0,04600;80,34445
0,4965;80,76732;0,04650;80,76732
0,4992;81,18891;0,04752;81,18891
0,5018;81,60957;0,04803;81,60957
0,5044;82,02906;0,04903;82,02906
0,5070;82,44774;0,04952;82,44774
0,5097;82,86572;0,05002;82,86572
0,5123;83,28311;0,05099;83,28311
0,5149;83,70004;0,05148;83,70004
0,5176;84,11628;0,05245;84,11628
0,5202;84,53205;0,05292;84,53205
0,5228;84,94723;0,05339;84,94723
0,5254;85,36218;0,05434;85,36218
0,5281;85,77702;0,05480;85,77702
0,5307;86,19162;0,05571;86,19162
0,5333;86,60623;0,05618;86,60623
0,5360;87,02037;0,05663;87,02037
0,5386;87,43416;0,05753;87,43416
0,5412;87,84759;0,05797;87,84759
0,5438;88,26092;0,05885;88,26092
0,5465;88,67401;0,05929;88,67401
0,5491;89,08675;0,05971;89,08675
0,5517;89,49914;0,06057;89,49914
0,5544;89,91095;0,06100;89,91095
0,5570;90,32183;0,06184;90,32183
0,5596;90,73178;0,06226;90,73178
0,5622;91,14056;0,06267;91,14056
0,5649;91,54830;0,06348;91,54830
0,5675;91,95499;0,06389;91,95499
0,5701;92,36063;0,06469;92,36063
0,5727;92,76522;0,06508;92,76522
0,5754;93,16842;0,06548;93,16842
0,5780;93,56987;0,06626;93,56987
0,5808;93,99786;0,06665;93,99786
0,5836;94,42341;0,06741;94,42341
0,5865;94,84709;0,06779;94,84709
0,5893;95,26891;0,06853;95,26891
0,5921;95,68922;0,06890;95,68922
0,5949;96,10766;0,06963;96,10766
0,5977;96,52448;0,06999;96,52448
0,6005;96,93978;0,07070;96,93978
0,6034;97,35368;0,07105;97,35368
0,6062;97,76666;0,07176;97,76666
0,6090;98,17858;0,07210;98,17858
0,6118;98,58958;0,07278;98,58958
0,6146;98,99964;0,07312;98,99964
0,6174;99,40878;0,07378;99,40878
0,6202;99,81686;0,07412;99,81686
0,6231;100,22378;0,07477;100,22378
0,6259;100,62942;0,07510;100,62942
0,6287;101,03390;0,07574;101,03390
0,6315;101,43756;0,07605;101,43756
0,6343;101,84053;0,07668;101,84053
0,6371;102,24245;0,07699;102,24245
0,6400;102,64355;0,07760;102,64355
0,6428;103,04430;0,07790;103,04430
0,6456;103,44494;0,07851;103,44494
0,6484;103,84534;0,07880;103,84534
0,6512;104,24539;0,07938;104,24539
0,6542;104,67164;0,07967;104,67164
0,6572;105,09707;0,08025;105,09707
0,6602;105,52110;0,08081;105,52110
0,6632;105,94292;0,08110;105,94292
0,6662;106,36113;0,08164;106,36113
0,6692;106,77306;0,08192;106,77306
0,6723;107,17532;0,08247;107,17532
0,6754;107,58934;0,08300;107,58934
0,6788;108,01047;0,08353;108,01047
0,6824;108,43112;0,08379;108,43112
0,6861;108,84084;0,08432;108,84084
0,6903;109,24706;0,08509;109,24706
0,6950;109,65235;0,08560;109,65235
0,7004;110,05636;0,08636;110,05636
0,7072;110,46596;0,08736;110,46596
0,7194;110,86788;0,08888;110,86788
0,7749;111,27282;0,09814;111,27282
0,7834;111,68195;0,09981;111,68195
0,7894;112,09039;0,10117;112,09039
0,7947;112,49463;0,10262;112,49463
0,8007;112,89853;0,10417;112,89853
1,2680;113,29858;0,66082;113,29858
1,2790;113,69957;0,67367;113,69957
1,2837;114,11010;0,67993;114,11010
1,2879;114,51469;0,68404;114,51469
1,2920;114,91975;0,68811;114,91975
1,2967;115,32702;0,69413;115,32702
1,3040;115,73325;0,70206;115,73325
1,4936;116,02330;1,31526;116,02330
1,5574;116,04763;1,92478;116,04763
1,6063;116,06078;2,53236;116,06078
1,6494;116,07312;3,14223;116,07312
1,6907;116,08197;3,76264;116,08197
1,7302;116,09221;4,36721;116,09221
1,7546;116,09710;4,73988;116,09710
1,7559;116,09757;4,73988;116,09757
