Part protocol
Network name;Part_OP10_MP-001_2020-08-26_15-57-04_0031_OK.csv
Protocol version;2.01.00

Index;Result information;Process values - curve related;Process values - EO related;Evaluation objects settings;Switch signal settings;Device information;Channel-X settings;Channel-Y settings;Cycle control settings;Evaluation settings;Trigger Y settings;Block settings;Measuring curve;Measuring points;Sequence;
Line;10;30;40;70;100;120;150;190;220;240;250;260;270;280;600;



Result information
Date;2020/08/26
Time;15:57:04
Cycle number;31
Total result;OK
Triggered switch signals
Part serial number;0031
Measuring program name;D57-Left
Measuring program number;1
Zero X offset;0,00;mm
Tara Y offset;0,0;kN









Process values - curve related
Block X;126,31;mm;XMIN-X;-0,21;mm
Block Y;7,5;kN;XMIN-Y;0,0;kN
Ref X;-;mm;XMAX-X;126,31;mm
Peak-peak X;126,52;mm;XMAX-Y;7,5;kN
Peak-peak Y;7,5;kN;YMIN-X;0,20;mm
;;;YMIN-Y;0,0;kN
;;;YMAX-X;126,31;mm
;;;YMAX-Y;7,5;kN

Process values - EO related;Result;Entry;Exit;XMIN-X;XMIN-Y;XMAX-X;XMAX-Y;YMIN-Y;YMIN-X;YMAX-Y;YMAX-X
;;;;mm;kN;mm;kN;kN;mm;kN;mm
EO-01;OK;0,7;0,7;;;;;0,7;124,50;0,7;125,65;;;;;;
EO-02;OK;126,26;126,28;126,26;4,5;126,27;5,0;;;;;;;;;;
EO-03;None;
EO-04;None;
























Evaluation objects settings;Reaction;X reference;Y-Reference;XMin;XMax;YMin;YMax;Entry;Exit;Curve part;Catch zone X;Catch zone Y
EO-01;UNI-BOX;ABSOLUTE;-;124,50;125,70;0,5;3,0;LEFT;RIGHT;ANY;+50%;+50%
EO-02;UNI-BOX;ABSOLUTE;-;125,80;127,20;4,5;5,5;BELOW;ABOVE;ANY;+50%;+50%
EO-03;OFF
EO-04;OFF

























Switch signal settings;Channel;Threshold at;;Trigger from;Reference;Latch until
Type S1;OFF
Type S2;OFF

















Device information
Device type;maXYmos BL
Device type number;5867B1011
Device serial number;5182443
Firmware version;2.3.2 (r22473-BL_v2.3.x)
-
-
-
-
-
IP Address;10.0.0.18
Network name;OP10
Profibus address;10
-
-
-
Station name;OP10
Company name;
Comment;











Channel-X settings
Use the settings from global setup;True
Sensor-X type;Â±10V
Unit;mm
Used range from;0,00;mm
Used range to;200,00;mm
Decimal places;XXXX.XX
Scaling by;Teach-In
Point 1;0,00;mm;-0,350;%
Point 2;200,00;mm;10,000;%
Invert signal;FALSE
Filter;20 Hz
Test point;0,00;mm
Tolerance;2,00;mm
Enable sensor test by dig-input;FALSE
Zoom from;110,00;mm
Zoom to;133,11;mm























Channel-Y settings
Use the settings from global setup;True
Sensor-Y type;Strain Gage
Unit;kN
Used range from;0,0;kN
Used range to;20,0;kN
Decimal places;XXXXX.X
Scaling by;Teach-In
Point 1;0,0;kN;-0,01562;%
Point 2;20,0;kN;2,00000;%
Invert signal;FALSE
Filter;1 Hz
Piezo reset;-
Test point;0,0;kN
Tolerance;0,1;kN
Enable sensor test by dig-input;FALSE
Zoom from;0,0;kN
Zoom to;6,0;kN












Cycle control settings
Use the settings from global setup;True
Measuring function;Y (X)
Delta-X;Automatic
START condition;Dig-Input
STOP condition;Dig-Input
Cycle time out;20,00;s
Turning point RIGHT;YMAX
Turning point LEFT;NONE
Cut curve at;NONE










Evaluation settings
Capture only first NOK-EO for statistics;False
Hysteresis-X;0,0;%
Hysteresis-Y;100,0;%






Trigger Y settings
Threshold;1,9;kN
Value X at TRIGGER Y;0,00;mm
Approach from;BELOW






Block settings
Value X at block;XMAX
Block at;0,00;mm







Measuring curve
Number of measuring points;316
Ref. Graph on;ABSOLUTE
Curve segments;0;315;314;316;


Time;X(ABSOLUTE);Y;X (ABSOLUTE)


s;mm;kN;mm
0,0000;-0,20832;-0,03458;-0,20832
0,1002;0,20267;-0,03461;0,20267
0,1041;0,62216;-0,03461;0,62216
0,1070;1,04154;-0,03460;1,04154
0,1092;1,45137;-0,03460;1,45137
0,1113;1,88553;-0,03460;1,88553
0,1132;2,32865;-0,03460;2,32865
0,1149;2,76677;-0,03460;2,76677
0,1164;3,18684;-0,03460;3,18684
0,1179;3,63543;-0,03460;3,63543
0,1192;4,05108;-0,03459;4,05108
0,1205;4,48827;-0,03459;4,48827
0,1218;4,94675;-0,03459;4,94675
0,1229;5,35472;-0,03458;5,35472
0,1240;5,77363;-0,03458;5,77363
0,1252;6,19895;-0,03458;6,19895
0,1263;6,62565;-0,03457;6,62565
0,1274;7,04864;-0,03457;7,04864
0,1286;7,46359;-0,03456;7,46359
0,1297;7,86737;-0,03455;7,86737
0,1310;8,32190;-0,03455;8,32190
0,1323;8,75757;-0,03454;8,75757
0,1336;9,17404;-0,03453;9,17404
0,1351;9,62682;-0,03452;9,62682
0,1366;10,05574;-0,03452;10,05574
0,1381;10,46243;-0,03450;10,46243
0,1398;10,89763;-0,03448;10,89763
0,1415;11,31550;-0,03448;11,31550
0,1432;11,72323;-0,03446;11,72323
0,1449;12,12631;-0,03444;12,12631
0,1466;12,52753;-0,03441;12,52753
0,1483;12,92887;-0,03439;12,92887
0,1500;13,33195;-0,03439;13,33195
0,1516;13,73910;-0,03436;13,73910
0,1533;14,15196;-0,03434;14,15196
0,1550;14,57087;-0,03431;14,57087
0,1567;14,99490;-0,03428;14,99490
0,1584;15,42312;-0,03424;15,42312
0,1601;15,85495;-0,03422;15,85495
0,1618;16,29074;-0,03418;16,29074
0,1635;16,73025;-0,03414;16,73025
0,1652;17,17302;-0,03410;17,17302
0,1669;17,61777;-0,03410;17,61777
0,1685;18,06415;-0,03406;18,06415
0,1702;18,51216;-0,03401;18,51216
0,1719;18,96215;-0,03397;18,96215
0,1734;19,36395;-0,03391;19,36395
0,1749;19,76692;-0,03386;19,76692
0,1764;20,17058;-0,03381;20,17058
0,1779;20,57471;-0,03381;20,57471
0,1794;20,97942;-0,03375;20,97942
0,1809;21,38529;-0,03369;21,38529
0,1824;21,79233;-0,03363;21,79233
0,1839;22,20041;-0,03357;22,20041
0,1854;22,60885;-0,03357;22,60885
0,1869;23,01717;-0,03349;23,01717
0,1884;23,42502;-0,03343;23,42502
0,1899;23,83276;-0,03336;23,83276
0,1914;24,24084;-0,03328;24,24084
0,1930;24,64916;-0,03328;24,64916
0,1945;25,05736;-0,03321;25,05736
0,1960;25,46498;-0,03313;25,46498
0,1975;25,87155;-0,03305;25,87155
0,1990;26,27731;-0,03297;26,27731
0,2005;26,68249;-0,03297;26,68249
0,2020;27,08766;-0,03288;27,08766
0,2035;27,49261;-0,03279;27,49261
0,2050;27,89673;-0,03270;27,89673
0,2065;28,29947;-0,03261;28,29947
0,2080;28,70045;-0,03261;28,70045
0,2097;29,14951;-0,03251;29,14951
0,2113;29,59659;-0,03242;29,59659
0,2130;30,04192;-0,03232;30,04192
0,2147;30,48504;-0,03222;30,48504
0,2164;30,92537;-0,03211;30,92537
0,2181;31,36267;-0,03200;31,36267
0,2198;31,79706;-0,03189;31,79706
0,2215;32,22889;-0,03178;32,22889
0,2232;32,65828;-0,03178;32,65828
0,2249;33,08522;-0,03167;33,08522
0,2266;33,50948;-0,03156;33,50948
0,2282;33,93107;-0,03144;33,93107
0,2299;34,34998;-0,03133;34,34998
0,2316;34,76656;-0,03121;34,76656
0,2333;35,18105;-0,03108;35,18105
0,2350;35,59298;-0,03096;35,59298
0,2367;36,00234;-0,03083;36,00234
0,2384;36,40903;-0,03071;36,40903
0,2401;36,81316;-0,03071;36,81316
0,2418;37,21496;-0,03058;37,21496
0,2436;37,65889;-0,03045;37,65889
0,2455;38,10027;-0,03031;38,10027
0,2474;38,53932;-0,03018;38,53932
0,2493;38,97615;-0,03004;38,97615
0,2511;39,41101;-0,02991;39,41101
0,2530;39,84389;-0,02977;39,84389
0,2549;40,27490;-0,02963;40,27490
0,2568;40,70417;-0,02949;40,70417
0,2587;41,13158;-0,02935;41,13158
0,2605;41,55736;-0,02921;41,55736
0,2624;41,98116;-0,02906;41,98116
0,2643;42,40309;-0,02891;42,40309
0,2662;42,82328;-0,02877;42,82328
0,2680;43,24173;-0,02862;43,24173
0,2699;43,65866;-0,02848;43,65866
0,2718;44,07408;-0,02832;44,07408
0,2737;44,48810;-0,02817;44,48810
0,2756;44,90096;-0,02802;44,90096
0,2774;45,31300;-0,02787;45,31300
0,2793;45,72423;-0,02772;45,72423
0,2812;46,13499;-0,02756;46,13499
0,2831;46,54482;-0,02740;46,54482
0,2849;46,95372;-0,02725;46,95372
0,2868;47,36146;-0,02709;47,36146
0,2887;47,76757;-0,02693;47,76757
0,2906;48,17216;-0,02677;48,17216
0,2925;48,57524;-0,02662;48,57524
0,2943;48,97692;-0,02646;48,97692
0,2962;49,37756;-0,02630;49,37756
0,2983;49,81731;-0,02613;49,81731
0,3003;50,25600;-0,02582;50,25600
0,3024;50,69389;-0,02565;50,69389
0,3045;51,13072;-0,02550;51,13072
0,3065;51,56686;-0,02533;51,56686
0,3086;52,00230;-0,02516;52,00230
0,3107;52,43681;-0,02501;52,43681
0,3127;52,87061;-0,02484;52,87061
0,3148;53,30349;-0,02467;53,30349
0,3169;53,73532;-0,02451;53,73532
0,3189;54,16587;-0,02434;54,16587
0,3210;54,59514;-0,02401;54,59514
0,3231;55,02302;-0,02385;55,02302
0,3251;55,44961;-0,02368;55,44961
0,3272;55,87480;-0,02351;55,87480
0,3292;56,29872;-0,02335;56,29872
0,3313;56,72147;-0,02318;56,72147
0,3334;57,14317;-0,02302;57,14317
0,3354;57,56383;-0,02284;57,56383
0,3375;57,98344;-0,02267;57,98344
0,3396;58,40188;-0,02251;58,40188
0,3416;58,81893;-0,02217;58,81893
0,3437;59,23447;-0,02201;59,23447
0,3458;59,64849;-0,02184;59,64849
0,3478;60,06111;-0,02167;60,06111
0,3499;60,47234;-0,02150;60,47234
0,3520;60,88217;-0,02133;60,88217
0,3540;61,29084;-0,02116;61,29084
0,3561;61,69834;-0,02100;61,69834
0,3582;62,10457;-0,02083;62,10457
0,3602;62,50939;-0,02066;62,50939
0,3623;62,91271;-0,02032;62,91271
0,3644;63,31451;-0,02015;63,31451
0,3664;63,71491;-0,01999;63,71491
0,3687;64,15035;-0,01982;64,15035
0,3709;64,58451;-0,01965;64,58451
0,3732;65,01762;-0,01949;65,01762
0,3754;65,44957;-0,01915;65,44957
0,3777;65,88012;-0,01899;65,88012
0,3799;66,30892;-0,01882;66,30892
0,3822;66,73621;-0,01866;66,73621
0,3844;67,16187;-0,01849;67,16187
0,3867;67,58637;-0,01816;67,58637
0,3890;68,00970;-0,01799;68,00970
0,3912;68,43199;-0,01782;68,43199
0,3935;68,85346;-0,01766;68,85346
0,3957;69,27412;-0,01749;69,27412
0,3980;69,69419;-0,01716;69,69419
0,4002;70,11333;-0,01699;70,11333
0,4025;70,53189;-0,01683;70,53189
0,4047;70,94964;-0,01666;70,94964
0,4070;71,36657;-0,01650;71,36657
0,4092;71,78257;-0,01617;71,78257
0,4115;72,19753;-0,01601;72,19753
0,4137;72,61166;-0,01584;72,61166
0,4160;73,02476;-0,01568;73,02476
0,4182;73,43726;-0,01552;73,43726
0,4205;73,84931;-0,01519;73,84931
0,4227;74,26077;-0,01503;74,26077
0,4250;74,67176;-0,01487;74,67176
0,4273;75,08194;-0,01470;75,08194
0,4295;75,49119;-0,01455;75,49119
0,4318;75,89963;-0,01422;75,89963
0,4340;76,30702;-0,01406;76,30702
0,4363;76,71335;-0,01390;76,71335
0,4385;77,11876;-0,01374;77,11876
0,4408;77,52324;-0,01358;77,52324
0,4430;77,92667;-0,01326;77,92667
0,4453;78,32894;-0,01310;78,32894
0,4475;78,73015;-0,01294;78,73015
0,4498;79,13044;-0,01279;79,13044
0,4522;79,56309;-0,01263;79,56309
0,4547;79,99468;-0,01230;79,99468
0,4571;80,42477;-0,01215;80,42477
0,4595;80,85346;-0,01199;80,85346
0,4620;81,28040;-0,01168;81,28040
0,4644;81,70524;-0,01152;81,70524
0,4669;82,12823;-0,01136;82,12823
0,4693;82,54935;-0,01105;82,54935
0,4717;82,96873;-0,01089;82,96873
0,4742;83,38624;-0,01074;83,38624
0,4766;83,80212;-0,01058;83,80212
0,4791;84,21603;-0,01027;84,21603
0,4815;84,62796;-0,01011;84,62796
0,4839;85,03802;-0,00996;85,03802
0,4864;85,44634;-0,00965;85,44634
0,4888;85,85349;-0,00950;85,85349
0,4913;86,25972;-0,00934;86,25972
0,4937;86,66524;-0,00904;86,66524
0,4962;87,06983;-0,00888;87,06983
0,4986;87,47303;-0,00873;87,47303
0,5010;87,87448;-0,00857;87,87448
0,5037;88,30503;-0,00827;88,30503
0,5063;88,73349;-0,00812;88,73349
0,5089;89,16020;-0,00782;89,16020
0,5115;89,58504;-0,00766;89,58504
0,5142;90,00814;-0,00751;90,00814
0,5168;90,42985;-0,00720;90,42985
0,5194;90,85015;-0,00706;90,85015
0,5221;91,26953;-0,00675;91,26953
0,5247;91,68798;-0,00660;91,68798
0,5273;92,10537;-0,00645;92,10537
0,5299;92,52172;-0,00616;92,52172
0,5326;92,93668;-0,00600;92,93668
0,5352;93,35070;-0,00570;93,35070
0,5378;93,76367;-0,00556;93,76367
0,5405;94,17595;-0,00541;94,17595
0,5431;94,58718;-0,00511;94,58718
0,5457;94,99724;-0,00496;94,99724
0,5483;95,40579;-0,00467;95,40579
0,5510;95,81271;-0,00452;95,81271
0,5536;96,21824;-0,00437;96,21824
0,5562;96,62271;-0,00408;96,62271
0,5589;97,02673;-0,00393;97,02673
0,5615;97,43050;-0,00363;97,43050
0,5641;97,83428;-0,00348;97,83428
0,5667;98,23783;-0,00333;98,23783
0,5694;98,64114;-0,00304;98,64114
0,5720;99,04399;-0,00289;99,04399
0,5746;99,44602;-0,00259;99,44602
0,5773;99,84689;-0,00246;99,84689
0,5801;100,27477;-0,00216;100,27477
0,5829;100,70112;-0,00201;100,70112
0,5857;101,12655;-0,00171;101,12655
0,5885;101,55175;-0,00158;101,55175
0,5913;101,97648;-0,00128;101,97648
0,5942;102,40086;-0,00113;102,40086
0,5970;102,82489;-0,00084;102,82489
0,5998;103,24729;-0,00070;103,24729
0,6026;103,66562;-0,00040;103,66562
0,6054;104,07767;-0,00026;104,07767
0,6082;104,48168;0,00003;104,48168
0,6112;104,90361;0,00018;104,90361
0,6142;105,31764;0,00047;105,31764
0,6172;105,72467;0,00062;105,72467
0,6202;106,12543;0,00091;106,12543
0,6234;106,54469;0,00120;106,54469
0,6266;106,95754;0,00135;106,95754
0,6298;107,36400;0,00165;107,36400
0,6332;107,78698;0,00194;107,78698
0,6366;108,20322;0,00224;108,20322
0,6400;108,61410;0,00239;108,61410
0,6433;109,02218;0,00269;109,02218
0,6467;109,43015;0,00299;109,43015
0,6501;109,84033;0,00329;109,84033
0,6535;110,25424;0,00360;110,25424
0,6569;110,67338;0,00376;110,67338
0,6600;111,07483;0,00407;111,07483
0,6632;111,48280;0,00439;111,48280
0,6664;111,89775;0,00471;111,89775
0,6696;112,31992;0,00487;112,31992
0,6726;112,72335;0,00520;112,72335
0,6756;113,13202;0,00537;113,13202
0,6786;113,54604;0,00570;113,54604
0,6816;113,96495;0,00603;113,96495
0,6846;114,38735;0,00621;114,38735
0,6876;114,81127;0,00656;114,81127
0,6907;115,23495;0,00674;115,23495
0,6937;115,65712;0,00709;115,65712
0,6967;116,07801;0,00745;116,07801
0,6997;116,49576;0,00763;116,49576
0,7027;116,90629;0,00800;116,90629
0,7057;117,31007;0,00820;117,31007
0,7089;117,73130;0,00858;117,73130
0,7122;118,14323;0,00897;118,14323
0,7166;118,55737;0,00937;118,55737
0,7252;118,95824;0,01042;118,95824
1,2578;119,14924;0,61080;119,14924
1,2837;119,55349;0,64182;119,55349
1,2879;119,96204;0,64867;119,96204
1,2914;120,38374;0,65093;120,38374
1,2948;120,78566;0,65542;120,78566
1,2986;121,19561;0,65987;121,19561
1,3029;121,60346;0,66643;121,60346
1,3083;122,00538;0,67075;122,00538
1,3173;122,40555;0,68137;122,40555
1,3273;122,81003;0,69385;122,81003
1,3340;123,21974;0,70002;123,21974
1,3391;123,62364;0,70616;123,62364
1,3436;124,02404;0,71024;124,02404
1,3479;124,42689;0,71635;124,42689
1,3521;124,83264;0,72042;124,83264
1,3562;125,23689;0,72449;125,23689
1,3613;125,64858;0,73060;125,64858
1,3731;126,04968;0,74290;126,04968
1,5845;126,15886;1,34573;126,15886
1,6671;126,19402;1,95121;126,19402
1,7309;126,21613;2,56421;126,21613
1,7872;126,23289;3,18357;126,23289
1,8398;126,24628;3,80171;126,24628
1,8905;126,25908;4,41189;126,25908
1,9412;126,27049;5,01759;126,27049
1,9938;126,28096;5,62619;126,28096
2,0501;126,29225;6,24467;126,29225
2,1102;126,30250;6,85873;126,30250
2,1740;126,31216;7,45671;126,31216
2,1749;126,31227;7,45671;126,31227
