Part protocol
Network name;Part_OP10_MP-001_2020-08-26_16-30-22_0045_OK.csv
Protocol version;2.01.00

Index;Result information;Process values - curve related;Process values - EO related;Evaluation objects settings;Switch signal settings;Device information;Channel-X settings;Channel-Y settings;Cycle control settings;Evaluation settings;Trigger Y settings;Block settings;Measuring curve;Measuring points;Sequence;
Line;10;30;40;70;100;120;150;190;220;240;250;260;270;280;600;



Result information
Date;2020/08/26
Time;16:30:22
Cycle number;45
Total result;OK
Triggered switch signals
Part serial number;0045
Measuring program name;D57-Left
Measuring program number;1
Zero X offset;0,00;mm
Tara Y offset;0,0;kN









Process values - curve related
Block X;126,45;mm;XMIN-X;-0,11;mm
Block Y;7,4;kN;XMIN-Y;0,0;kN
Ref X;-;mm;XMAX-X;126,45;mm
Peak-peak X;126,56;mm;XMAX-Y;7,4;kN
Peak-peak Y;7,5;kN;YMIN-X;0,51;mm
;;;YMIN-Y;0,0;kN
;;;YMAX-X;126,45;mm
;;;YMAX-Y;7,5;kN

Process values - EO related;Result;Entry;Exit;XMIN-X;XMIN-Y;XMAX-X;XMAX-Y;YMIN-Y;YMIN-X;YMAX-Y;YMAX-X
;;;;mm;kN;mm;kN;kN;mm;kN;mm
EO-01;OK;0,7;0,7;;;;;0,7;124,50;0,7;125,38;;;;;;
EO-02;OK;126,41;126,42;126,41;4,5;126,41;5,0;;;;;;;;;;
EO-03;None;
EO-04;None;
























Evaluation objects settings;Reaction;X reference;Y-Reference;XMin;XMax;YMin;YMax;Entry;Exit;Curve part;Catch zone X;Catch zone Y
EO-01;UNI-BOX;ABSOLUTE;-;124,50;125,70;0,5;3,0;LEFT;RIGHT;ANY;+50%;+50%
EO-02;UNI-BOX;ABSOLUTE;-;125,80;127,20;4,5;5,5;BELOW;ABOVE;ANY;+50%;+50%
EO-03;OFF
EO-04;OFF

























Switch signal settings;Channel;Threshold at;;Trigger from;Reference;Latch until
Type S1;OFF
Type S2;OFF

















Device information
Device type;maXYmos BL
Device type number;5867B1011
Device serial number;5182443
Firmware version;2.3.2 (r22473-BL_v2.3.x)
-
-
-
-
-
IP Address;10.0.0.18
Network name;OP10
Profibus address;10
-
-
-
Station name;OP10
Company name;
Comment;











Channel-X settings
Use the settings from global setup;True
Sensor-X type;Â±10V
Unit;mm
Used range from;0,00;mm
Used range to;200,00;mm
Decimal places;XXXX.XX
Scaling by;Teach-In
Point 1;0,00;mm;-0,350;%
Point 2;200,00;mm;10,000;%
Invert signal;FALSE
Filter;20 Hz
Test point;0,00;mm
Tolerance;2,00;mm
Enable sensor test by dig-input;FALSE
Zoom from;110,00;mm
Zoom to;133,11;mm























Channel-Y settings
Use the settings from global setup;True
Sensor-Y type;Strain Gage
Unit;kN
Used range from;0,0;kN
Used range to;20,0;kN
Decimal places;XXXXX.X
Scaling by;Teach-In
Point 1;0,0;kN;-0,01562;%
Point 2;20,0;kN;2,00000;%
Invert signal;FALSE
Filter;1 Hz
Piezo reset;-
Test point;0,0;kN
Tolerance;0,1;kN
Enable sensor test by dig-input;FALSE
Zoom from;0,0;kN
Zoom to;6,0;kN












Cycle control settings
Use the settings from global setup;True
Measuring function;Y (X)
Delta-X;Automatic
START condition;Dig-Input
STOP condition;Dig-Input
Cycle time out;20,00;s
Turning point RIGHT;YMAX
Turning point LEFT;NONE
Cut curve at;NONE










Evaluation settings
Capture only first NOK-EO for statistics;False
Hysteresis-X;0,0;%
Hysteresis-Y;100,0;%






Trigger Y settings
Threshold;1,9;kN
Value X at TRIGGER Y;0,00;mm
Approach from;BELOW






Block settings
Value X at block;XMAX
Block at;0,00;mm







Measuring curve
Number of measuring points;316
Ref. Graph on;ABSOLUTE
Curve segments;0;316;315;316;


Time;X(ABSOLUTE);Y;X (ABSOLUTE)


s;mm;kN;mm
0,0000;-0,11067;-0,03417;-0,11067
0,1048;0,29172;-0,03422;0,29172
0,1071;0,50635;-0,03423;0,50635
0,1087;0,70818;-0,03423;0,70818
0,1116;1,12651;-0,03423;1,12651
0,1138;1,53634;-0,03422;1,53634
0,1159;1,97120;-0,03422;1,97120
0,1178;2,41560;-0,03422;2,41560
0,1194;2,85523;-0,03422;2,85523
0,1210;3,27740;-0,03422;3,27740
0,1225;3,72843;-0,03422;3,72843
0,1238;4,14665;-0,03422;4,14665
0,1251;4,58686;-0,03421;4,58686
0,1264;5,04802;-0,03421;5,04802
0,1275;5,45738;-0,03421;5,45738
0,1286;5,87606;-0,03421;5,87606
0,1298;6,29940;-0,03420;6,29940
0,1309;6,72238;-0,03420;6,72238
0,1320;7,14048;-0,03419;7,14048
0,1332;7,54973;-0,03419;7,54973
0,1345;8,01287;-0,03419;8,01287
0,1358;8,45831;-0,03418;8,45831
0,1371;8,88572;-0,03417;8,88572
0,1384;9,29520;-0,03417;9,29520
0,1399;9,74205;-0,03416;9,74205
0,1414;10,16725;-0,03414;10,16725
0,1429;10,57277;-0,03413;10,57277
0,1446;11,00937;-0,03411;11,00937
0,1463;11,43096;-0,03411;11,43096
0,1480;11,84335;-0,03410;11,84335
0,1497;12,25062;-0,03409;12,25062
0,1514;12,65510;-0,03407;12,65510
0,1531;13,05876;-0,03405;13,05876
0,1547;13,46324;-0,03402;13,46324
0,1564;13,87074;-0,03399;13,87074
0,1581;14,28209;-0,03398;14,28209
0,1598;14,69704;-0,03395;14,69704
0,1615;15,11490;-0,03391;15,11490
0,1632;15,53533;-0,03391;15,53533
0,1649;15,95831;-0,03388;15,95831
0,1666;16,38397;-0,03385;16,38397
0,1683;16,81185;-0,03381;16,81185
0,1700;17,24112;-0,03377;17,24112
0,1716;17,67143;-0,03373;17,67143
0,1733;18,10257;-0,03369;18,10257
0,1750;18,53498;-0,03364;18,53498
0,1767;18,96855;-0,03360;18,96855
0,1784;19,40295;-0,03355;19,40295
0,1801;19,83769;-0,03355;19,83769
0,1818;20,27254;-0,03349;20,27254
0,1835;20,70821;-0,03345;20,70821
0,1852;21,14517;-0,03339;21,14517
0,1868;21,58386;-0,03333;21,58386
0,1885;22,02373;-0,03327;22,02373
0,1902;22,46417;-0,03321;22,46417
0,1919;22,90508;-0,03314;22,90508
0,1936;23,34692;-0,03307;23,34692
0,1953;23,79016;-0,03300;23,79016
0,1970;24,23479;-0,03300;24,23479
0,1987;24,68070;-0,03293;24,68070
0,2004;25,12720;-0,03285;25,12720
0,2021;25,57428;-0,03277;25,57428
0,2037;26,02206;-0,03269;26,02206
0,2054;26,47088;-0,03261;26,47088
0,2071;26,92075;-0,03252;26,92075
0,2086;27,32104;-0,03243;27,32104
0,2101;27,72144;-0,03243;27,72144
0,2116;28,12161;-0,03235;28,12161
0,2131;28,52167;-0,03225;28,52167
0,2148;28,97154;-0,03215;28,97154
0,2165;29,42106;-0,03206;29,42106
0,2182;29,86989;-0,03196;29,86989
0,2199;30,31755;-0,03186;30,31755
0,2216;30,76381;-0,03175;30,76381
0,2233;31,20833;-0,03175;31,20833
0,2250;31,65145;-0,03164;31,65145
0,2266;32,09282;-0,03153;32,09282
0,2283;32,53268;-0,03142;32,53268
0,2300;32,97068;-0,03131;32,97068
0,2317;33,40670;-0,03119;33,40670
0,2334;33,84086;-0,03107;33,84086
0,2351;34,27327;-0,03095;34,27327
0,2368;34,70394;-0,03083;34,70394
0,2385;35,13321;-0,03071;35,13321
0,2402;35,56097;-0,03071;35,56097
0,2419;35,98686;-0,03058;35,98686
0,2435;36,41078;-0,03045;36,41078
0,2452;36,83248;-0,03032;36,83248
0,2469;37,25174;-0,03019;37,25174
0,2486;37,66879;-0,03005;37,66879
0,2503;38,08328;-0,02991;38,08328
0,2520;38,49532;-0,02977;38,49532
0,2537;38,90492;-0,02963;38,90492
0,2554;39,31207;-0,02949;39,31207
0,2571;39,71701;-0,02949;39,71701
0,2588;40,12010;-0,02936;40,12010
0,2604;40,52143;-0,02921;40,52143
0,2623;40,96560;-0,02906;40,96560
0,2642;41,40802;-0,02891;41,40802
0,2661;41,84846;-0,02876;41,84846
0,2680;42,28693;-0,02862;42,28693
0,2698;42,72330;-0,02846;42,72330
0,2717;43,15722;-0,02831;43,15722
0,2736;43,58847;-0,02815;43,58847
0,2755;44,01704;-0,02800;44,01704
0,2773;44,44294;-0,02784;44,44294
0,2792;44,86627;-0,02768;44,86627
0,2811;45,28751;-0,02752;45,28751
0,2830;45,70677;-0,02737;45,70677
0,2848;46,12428;-0,02720;46,12428
0,2867;46,53970;-0,02704;46,53970
0,2886;46,95291;-0,02688;46,95291
0,2905;47,36367;-0,02671;47,36367
0,2924;47,77187;-0,02654;47,77187
0,2942;48,17763;-0,02638;48,17763
0,2961;48,58118;-0,02621;48,58118
0,2980;48,98286;-0,02604;48,98286
0,2999;49,38291;-0,02588;49,38291
0,3019;49,82150;-0,02571;49,82150
0,3040;50,25856;-0,02554;50,25856
0,3061;50,69412;-0,02520;50,69412
0,3081;51,12805;-0,02502;51,12805
0,3102;51,56022;-0,02486;51,56022
0,3123;51,99077;-0,02468;51,99077
0,3143;52,41981;-0,02451;52,41981
0,3164;52,84757;-0,02434;52,84757
0,3185;53,27439;-0,02416;53,27439
0,3205;53,70029;-0,02399;53,70029
0,3226;54,12560;-0,02381;54,12560
0,3247;54,55010;-0,02364;54,55010
0,3267;54,97378;-0,02329;54,97378
0,3288;55,39607;-0,02312;55,39607
0,3308;55,81695;-0,02294;55,81695
0,3329;56,23621;-0,02277;56,23621
0,3350;56,65408;-0,02259;56,65408
0,3370;57,07078;-0,02241;57,07078
0,3391;57,48678;-0,02224;57,48678
0,3412;57,90231;-0,02206;57,90231
0,3432;58,31738;-0,02188;58,31738
0,3453;58,73175;-0,02170;58,73175
0,3474;59,14519;-0,02135;59,14519
0,3494;59,55712;-0,02117;59,55712
0,3515;59,96776;-0,02100;59,96776
0,3536;60,37701;-0,02082;60,37701
0,3556;60,78545;-0,02065;60,78545
0,3577;61,19342;-0,02046;61,19342
0,3598;61,60080;-0,02028;61,60080
0,3618;62,00761;-0,02011;62,00761
0,3639;62,41325;-0,01993;62,41325
0,3660;62,81750;-0,01976;62,81750
0,3680;63,22023;-0,01940;63,22023
0,3701;63,62133;-0,01922;63,62133
0,3723;64,05758;-0,01904;64,05758
0,3746;64,49290;-0,01887;64,49290
0,3768;64,92764;-0,01869;64,92764
0,3791;65,36215;-0,01852;65,36215
0,3813;65,79631;-0,01816;65,79631
0,3836;66,23000;-0,01799;66,23000
0,3859;66,66276;-0,01781;66,66276
0,3881;67,09460;-0,01764;67,09460
0,3904;67,52526;-0,01746;67,52526
0,3926;67,95511;-0,01711;67,95511
0,3949;68,38415;-0,01693;68,38415
0,3971;68,81249;-0,01676;68,81249
0,3994;69,24024;-0,01658;69,24024
0,4016;69,66765;-0,01641;69,66765
0,4039;70,09459;-0,01606;70,09459
0,4061;70,52084;-0,01589;70,52084
0,4084;70,94650;-0,01571;70,94650
0,4106;71,37123;-0,01554;71,37123
0,4129;71,79468;-0,01537;71,79468
0,4151;72,21685;-0,01502;72,21685
0,4174;72,63785;-0,01485;72,63785
0,4196;73,05793;-0,01467;73,05793
0,4219;73,47695;-0,01451;73,47695
0,4242;73,89528;-0,01433;73,89528
0,4264;74,31256;-0,01399;74,31256
0,4287;74,72845;-0,01381;74,72845
0,4309;75,14270;-0,01365;75,14270
0,4332;75,55509;-0,01348;75,55509
0,4354;75,96574;-0,01330;75,96574
0,4377;76,37487;-0,01296;76,37487
0,4399;76,78284;-0,01280;76,78284
0,4422;77,18965;-0,01263;77,18965
0,4444;77,59541;-0,01246;77,59541
0,4467;77,99988;-0,01230;77,99988
0,4489;78,40296;-0,01195;78,40296
0,4512;78,80465;-0,01179;78,80465
0,4534;79,20493;-0,01162;79,20493
0,4559;79,63688;-0,01145;79,63688
0,4583;80,06720;-0,01112;80,06720
0,4608;80,49589;-0,01095;80,49589
0,4632;80,92283;-0,01079;80,92283
0,4656;81,34802;-0,01046;81,34802
0,4681;81,77171;-0,01030;81,77171
0,4705;82,19388;-0,01013;82,19388
0,4730;82,61418;-0,00996;82,61418
0,4754;83,03274;-0,00964;83,03274
0,4778;83,44968;-0,00948;83,44968
0,4803;83,86486;-0,00931;83,86486
0,4827;84,27877;-0,00899;84,27877
0,4852;84,69162;-0,00883;84,69162
0,4876;85,10378;-0,00867;85,10378
0,4900;85,51525;-0,00834;85,51525
0,4925;85,92589;-0,00819;85,92589
0,4949;86,33537;-0,00803;86,33537
0,4974;86,74369;-0,00787;86,74369
0,4998;87,15085;-0,00755;87,15085
0,5023;87,55684;-0,00739;87,55684
0,5047;87,96166;-0,00723;87,96166
0,5071;88,36567;-0,00692;88,36567
0,5096;88,76887;-0,00676;88,76887
0,5120;89,17125;-0,00660;89,17125
0,5145;89,57236;-0,00629;89,57236
0,5171;90,00267;-0,00614;90,00267
0,5197;90,43113;-0,00598;90,43113
0,5223;90,85772;-0,00567;90,85772
0,5250;91,28268;-0,00552;91,28268
0,5276;91,70660;-0,00520;91,70660
0,5302;92,12958;-0,00506;92,12958
0,5329;92,55210;-0,00490;92,55210
0,5355;92,97381;-0,00459;92,97381
0,5381;93,39469;-0,00445;93,39469
0,5407;93,81407;-0,00414;93,81407
0,5434;94,23193;-0,00399;94,23193
0,5460;94,64840;-0,00383;94,64840
0,5486;95,06393;-0,00354;95,06393
0,5513;95,47854;-0,00339;95,47854
0,5539;95,89221;-0,00309;95,89221
0,5565;96,30495;-0,00294;96,30495
0,5591;96,71630;-0,00279;96,71630
0,5618;97,12648;-0,00249;97,12648
0,5644;97,53561;-0,00234;97,53561
0,5670;97,94370;-0,00205;97,94370
0,5697;98,35132;-0,00190;98,35132
0,5723;98,75859;-0,00175;98,75859
0,5749;99,16551;-0,00146;99,16551
0,5775;99,57208;-0,00132;99,57208
0,5802;99,97795;-0,00102;99,97795
0,5828;100,38301;-0,00087;100,38301
0,5854;100,78749;-0,00073;100,78749
0,5881;101,19115;-0,00044;101,19115
0,5907;101,59423;-0,00030;101,59423
0,5933;101,99673;0,00000;101,99673
0,5959;102,39865;0,00014;102,39865
0,5986;102,79963;0,00028;102,79963
0,6012;103,19969;0,00057;103,19969
0,6040;103,62558;0,00071;103,62558
0,6068;104,04624;0,00100;104,04624
0,6096;104,45898;0,00115;104,45898
0,6125;104,86264;0,00142;104,86264
0,6155;105,28388;0,00157;105,28388
0,6185;105,69755;0,00185;105,69755
0,6215;106,10517;0,00214;106,10517
0,6245;106,50721;0,00228;106,50721
0,6277;106,92844;0,00256;106,92844
0,6309;107,34363;0,00285;107,34363
0,6340;107,75265;0,00299;107,75265
0,6372;108,15433;0,00327;108,15433
0,6406;108,57115;0,00356;108,57115
0,6440;108,98016;0,00385;108,98016
0,6474;109,38429;0,00400;109,38429
0,6508;109,78644;0,00428;109,78644
0,6541;110,18952;0,00458;110,18952
0,6575;110,59586;0,00488;110,59586
0,6609;111,00732;0,00517;111,00732
0,6643;111,42553;0,00532;111,42553
0,6675;111,82826;0,00563;111,82826
0,6707;112,24007;0,00593;112,24007
0,6738;112,66271;0,00609;112,66271
0,6769;113,07056;0,00639;113,07056
0,6799;113,48761;0,00672;113,48761
0,6829;113,91304;0,00688;113,91304
0,6857;114,31822;0,00720;114,31822
0,6885;114,72746;0,00737;114,72746
0,6913;115,13776;0,00770;115,13776
0,6941;115,54689;0,00787;115,54689
0,6969;115,95405;0,00821;115,95405
0,6998;116,35946;0,00838;116,35946
0,7026;116,76172;0,00873;116,76172
0,7056;117,18413;0,00890;117,18413
0,7086;117,60001;0,00926;117,60001
0,7118;118,02218;0,00962;118,02218
0,7153;118,42619;0,01000;118,42619
0,7206;118,83253;0,01038;118,83253
1,2579;119,22106;0,61199;119,22106
1,2814;119,63695;0,64119;119,63695
1,2851;120,05527;0,64587;120,05527
1,2881;120,47302;0,65050;120,47302
1,2910;120,88611;0,65279;120,88611
1,2940;121,30025;0,65735;121,30025
1,2975;121,71194;0,66185;121,71194
1,3022;122,11549;0,66630;122,11549
1,3092;122,51671;0,67506;122,51671
1,3197;122,91816;0,68578;122,91816
1,3264;123,32880;0,69419;123,32880
1,3313;123,73142;0,70042;123,73142
1,3356;124,14626;0,70455;124,14626
1,3396;124,56330;0,70865;124,56330
1,3433;124,97057;0,71272;124,97057
1,3473;125,37540;0,71678;125,37540
1,3522;125,78279;0,72281;125,78279
1,3627;126,18331;0,73281;126,18331
1,5865;126,31577;1,33736;126,31577
1,6691;126,34487;1,94684;126,34487
1,7310;126,36628;2,55376;126,36628
1,7855;126,38141;3,16705;126,38141
1,8361;126,39282;3,77904;126,39282
1,8850;126,40341;4,38339;126,40341
1,9338;126,41366;4,98426;126,41366
1,9845;126,42402;5,58985;126,42402
2,0389;126,43100;6,20771;126,43100
2,0971;126,44043;6,82320;126,44043
2,1591;126,44834;7,42442;126,44834
2,1617;126,44857;7,44176;126,44857
2,1628;126,44857;7,45907;126,44857
