Part protocol
Network name;Part_OP10_MP-002_2020-08-26_16-00-59_0034_OK.csv
Protocol version;2.01.00

Index;Result information;Process values - curve related;Process values - EO related;Evaluation objects settings;Switch signal settings;Device information;Channel-X settings;Channel-Y settings;Cycle control settings;Evaluation settings;Trigger Y settings;Block settings;Measuring curve;Measuring points;Sequence;
Line;10;30;40;70;100;120;150;190;220;240;250;260;270;280;570;



Result information
Date;2020/08/26
Time;16:00:59
Cycle number;34
Total result;OK
Triggered switch signals
Part serial number;0034
Measuring program name;D57-Right
Measuring program number;2
Zero X offset;0,00;mm
Tara Y offset;0,0;kN









Process values - curve related
Block X;116,06;mm;XMIN-X;0,04;mm
Block Y;4,9;kN;XMIN-Y;0,0;kN
Ref X;-;mm;XMAX-X;116,06;mm
Peak-peak X;116,02;mm;XMAX-Y;4,9;kN
Peak-peak Y;4,9;kN;YMIN-X;0,45;mm
;;;YMIN-Y;0,0;kN
;;;YMAX-X;116,06;mm
;;;YMAX-Y;4,9;kN

Process values - EO related;Result;Entry;Exit;XMIN-X;XMIN-Y;XMAX-X;XMAX-Y;YMIN-Y;YMIN-X;YMAX-Y;YMAX-X
;;;;mm;kN;mm;kN;kN;mm;kN;mm
EO-01;OK;0,7;0,7;;;;;0,7;115,00;0,7;115,23;;;;;;
EO-02;OK;;116,04;116,02;2,3;116,04;3,1;2,3;116,02;;;;;;;;
EO-03;None;
EO-04;None;
























Evaluation objects settings;Reaction;X reference;Y-Reference;XMin;XMax;YMin;YMax;Entry;Exit;Curve part;Catch zone X;Catch zone Y
EO-01;UNI-BOX;ABSOLUTE;-;115,00;115,50;0,4;2,0;LEFT;RIGHT;ANY;+50%;+50%
EO-02;UNI-BOX;ABSOLUTE;-;115,40;117,10;2,3;3,3;ANY;ABOVE;ANY;+50%;+50%
EO-03;OFF
EO-04;OFF

























Switch signal settings;Channel;Threshold at;;Trigger from;Reference;Latch until
Type S1;OFF
Type S2;OFF

















Device information
Device type;maXYmos BL
Device type number;5867B1011
Device serial number;5182443
Firmware version;2.3.2 (r22473-BL_v2.3.x)
-
-
-
-
-
IP Address;10.0.0.18
Network name;OP10
Profibus address;10
-
-
-
Station name;OP10
Company name;
Comment;











Channel-X settings
Use the settings from global setup;True
Sensor-X type;Â±10V
Unit;mm
Used range from;0,00;mm
Used range to;200,00;mm
Decimal places;XXXX.XX
Scaling by;Teach-In
Point 1;0,00;mm;-0,350;%
Point 2;200,00;mm;10,000;%
Invert signal;FALSE
Filter;20 Hz
Test point;0,00;mm
Tolerance;2,00;mm
Enable sensor test by dig-input;FALSE
Zoom from;100,00;mm
Zoom to;120,00;mm























Channel-Y settings
Use the settings from global setup;True
Sensor-Y type;Strain Gage
Unit;kN
Used range from;0,0;kN
Used range to;20,0;kN
Decimal places;XXXXX.X
Scaling by;Teach-In
Point 1;0,0;kN;-0,01562;%
Point 2;20,0;kN;2,00000;%
Invert signal;FALSE
Filter;1 Hz
Piezo reset;-
Test point;0,0;kN
Tolerance;0,1;kN
Enable sensor test by dig-input;FALSE
Zoom from;0,0;kN
Zoom to;5,0;kN












Cycle control settings
Use the settings from global setup;True
Measuring function;Y (X)
Delta-X;Automatic
START condition;Dig-Input
STOP condition;Dig-Input
Cycle time out;20,00;s
Turning point RIGHT;YMAX
Turning point LEFT;NONE
Cut curve at;NONE










Evaluation settings
Capture only first NOK-EO for statistics;False
Hysteresis-X;0,0;%
Hysteresis-Y;100,0;%






Trigger Y settings
Threshold;1,8;kN
Value X at TRIGGER Y;0,00;mm
Approach from;BELOW






Block settings
Value X at block;XMAX
Block at;0,00;mm







Measuring curve
Number of measuring points;287
Ref. Graph on;ABSOLUTE
Curve segments;0;286;285;287;


Time;X(ABSOLUTE);Y;X (ABSOLUTE)


s;mm;kN;mm
0,0000;0,04181;-0,03510;0,04181
0,1092;0,45269;-0,03513;0,45269
0,1124;0,85868;-0,03512;0,85868
0,1147;1,26584;-0,03512;1,26584
0,1165;1,68719;-0,03511;1,68719
0,1182;2,13008;-0,03511;2,13008
0,1197;2,56971;-0,03510;2,56971
0,1210;2,98257;-0,03510;2,98257
0,1224;3,41335;-0,03510;3,41335
0,1237;3,85379;-0,03509;3,85379
0,1250;4,29726;-0,03508;4,29726
0,1263;4,73899;-0,03508;4,73899
0,1276;5,17547;-0,03506;5,17547
0,1289;5,60439;-0,03505;5,60439
0,1302;6,02377;-0,03505;6,02377
0,1316;6,43255;-0,03503;6,43255
0,1331;6,88696;-0,03501;6,88696
0,1346;7,32962;-0,03498;7,32962
0,1361;7,76296;-0,03496;7,76296
0,1376;8,18944;-0,03496;8,18944
0,1391;8,61114;-0,03493;8,61114
0,1406;9,02970;-0,03489;9,02970
0,1421;9,44699;-0,03486;9,44699
0,1436;9,86438;-0,03482;9,86438
0,1451;10,28318;-0,03482;10,28318
0,1466;10,70407;-0,03478;10,70407
0,1481;11,12728;-0,03473;11,12728
0,1496;11,55259;-0,03468;11,55259
0,1511;11,97954;-0,03462;11,97954
0,1526;12,40764;-0,03462;12,40764
0,1541;12,83598;-0,03456;12,83598
0,1556;13,26397;-0,03449;13,26397
0,1571;13,69068;-0,03443;13,69068
0,1586;14,11553;-0,03435;14,11553
0,1601;14,53758;-0,03435;14,53758
0,1616;14,95614;-0,03428;14,95614
0,1631;15,37074;-0,03420;15,37074
0,1646;15,78104;-0,03410;15,78104
0,1661;16,18668;-0,03401;16,18668
0,1676;16,58755;-0,03401;16,58755
0,1693;17,03277;-0,03392;17,03277
0,1710;17,47170;-0,03381;17,47170
0,1727;17,90481;-0,03371;17,90481
0,1744;18,33210;-0,03359;18,33210
0,1761;18,75404;-0,03348;18,75404
0,1777;19,17097;-0,03335;19,17097
0,1794;19,58336;-0,03322;19,58336
0,1811;19,99179;-0,03308;19,99179
0,1828;20,39650;-0,03308;20,39650
0,1845;20,79784;-0,03294;20,79784
0,1864;21,24014;-0,03279;21,24014
0,1883;21,67873;-0,03264;21,67873
0,1901;22,11405;-0,03248;22,11405
0,1920;22,54623;-0,03232;22,54623
0,1939;22,97573;-0,03214;22,97573
0,1958;23,40267;-0,03197;23,40267
0,1976;23,82740;-0,03178;23,82740
0,1995;24,24992;-0,03160;24,24992
0,2014;24,67034;-0,03140;24,67034
0,2033;25,08891;-0,03120;25,08891
0,2052;25,50572;-0,03099;25,50572
0,2070;25,92126;-0,03078;25,92126
0,2089;26,33563;-0,03056;26,33563
0,2108;26,74918;-0,03034;26,74918
0,2127;27,16216;-0,03011;27,16216
0,2145;27,57455;-0,02987;27,57455
0,2164;27,98659;-0,02962;27,98659
0,2183;28,39805;-0,02937;28,39805
0,2202;28,80928;-0,02912;28,80928
0,2221;29,22016;-0,02885;29,22016
0,2239;29,63092;-0,02858;29,63092
0,2258;30,04145;-0,02830;30,04145
0,2277;30,45175;-0,02802;30,45175
0,2296;30,86193;-0,02774;30,86193
0,2314;31,27188;-0,02744;31,27188
0,2333;31,68183;-0,02713;31,68183
0,2352;32,09166;-0,02683;32,09166
0,2371;32,50137;-0,02651;32,50137
0,2389;32,91120;-0,02620;32,91120
0,2408;33,32092;-0,02588;33,32092
0,2427;33,73075;-0,02554;33,73075
0,2446;34,14047;-0,02520;34,14047
0,2465;34,55018;-0,02486;34,55018
0,2483;34,95978;-0,02451;34,95978
0,2502;35,36903;-0,02415;35,36903
0,2521;35,77805;-0,02379;35,77805
0,2540;36,18683;-0,02342;36,18683
0,2558;36,59561;-0,02305;36,59561
0,2577;37,00428;-0,02267;37,00428
0,2596;37,41307;-0,02228;37,41307
0,2615;37,82185;-0,02190;37,82185
0,2634;38,23063;-0,02150;38,23063
0,2652;38,63907;-0,02109;38,63907
0,2671;39,04739;-0,02068;39,04739
0,2690;39,45536;-0,02027;39,45536
0,2709;39,86286;-0,01985;39,86286
0,2727;40,26990;-0,01942;40,26990
0,2746;40,67612;-0,01899;40,67612
0,2765;41,08165;-0,01855;41,08165
0,2784;41,48612;-0,01812;41,48612
0,2802;41,88955;-0,01766;41,88955
0,2821;42,29170;-0,01722;42,29170
0,2840;42,69280;-0,01676;42,69280
0,2861;43,13255;-0,01629;43,13255
0,2881;43,57090;-0,01536;43,57090
0,2902;44,00738;-0,01489;44,00738
0,2923;44,44212;-0,01441;44,44212
0,2943;44,87500;-0,01392;44,87500
0,2964;45,30590;-0,01342;45,30590
0,2985;45,73517;-0,01293;45,73517
0,3005;46,16258;-0,01243;46,16258
0,3026;46,58801;-0,01193;46,58801
0,3047;47,01157;-0,01143;47,01157
0,3067;47,43293;-0,01091;47,43293
0,3088;47,85230;-0,00988;47,85230
0,3109;48,26958;-0,00935;48,26958
0,3129;48,68500;-0,00882;48,68500
0,3150;49,09844;-0,00830;49,09844
0,3170;49,51002;-0,00776;49,51002
0,3191;49,91997;-0,00722;49,91997
0,3212;50,32840;-0,00669;50,32840
0,3232;50,73521;-0,00614;50,73521
0,3253;51,14050;-0,00559;51,14050
0,3274;51,54428;-0,00505;51,54428
0,3294;51,94678;-0,00394;51,94678
0,3315;52,34776;-0,00338;52,34776
0,3338;52,78355;-0,00282;52,78355
0,3360;53,21782;-0,00225;53,21782
0,3383;53,65059;-0,00169;53,65059
0,3405;54,08207;-0,00111;54,08207
0,3428;54,51227;0,00003;54,51227
0,3450;54,94131;0,00061;54,94131
0,3473;55,36895;0,00118;55,36895
0,3495;55,79554;0,00177;55,79554
0,3518;56,22062;0,00234;56,22062
0,3540;56,64453;0,00352;56,64453
0,3563;57,06717;0,00410;57,06717
0,3585;57,48852;0,00469;57,48852
0,3608;57,90895;0,00527;57,90895
0,3630;58,32879;0,00587;58,32879
0,3653;58,74816;0,00705;58,74816
0,3675;59,16719;0,00764;59,16719
0,3698;59,58598;0,00825;59,58598
0,3721;60,00431;0,00884;60,00431
0,3743;60,42229;0,00944;60,42229
0,3766;60,84004;0,01063;60,84004
0,3788;61,25767;0,01124;61,25767
0,3811;61,67518;0,01183;61,67518
0,3833;62,09235;0,01243;62,09235
0,3856;62,50881;0,01303;62,50881
0,3878;62,92423;0,01423;62,92423
0,3901;63,33849;0,01484;63,33849
0,3923;63,75158;0,01544;63,75158
0,3946;64,16362;0,01604;64,16362
0,3968;64,57461;0,01663;64,57461
0,3991;64,98468;0,01784;64,98468
0,4013;65,39370;0,01844;65,39370
0,4036;65,80166;0,01904;65,80166
0,4058;66,20870;0,01963;66,20870
0,4081;66,61481;0,02023;66,61481
0,4104;67,01998;0,02143;67,01998
0,4126;67,42435;0,02203;67,42435
0,4149;67,82789;0,02262;67,82789
0,4171;68,23074;0,02321;68,23074
0,4194;68,63312;0,02381;68,63312
0,4216;69,03481;0,02499;69,03481
0,4239;69,43567;0,02558;69,43567
0,4263;69,86890;0,02618;69,86890
0,4288;70,30073;0,02676;70,30073
0,4312;70,73093;0,02793;70,73093
0,4336;71,15974;0,02852;71,15974
0,4361;71,58691;0,02910;71,58691
0,4385;72,01234;0,03026;72,01234
0,4410;72,43626;0,03084;72,43626
0,4434;72,85877;0,03142;72,85877
0,4458;73,27990;0,03256;73,27990
0,4483;73,69962;0,03314;73,69962
0,4507;74,11807;0,03370;74,11807
0,4532;74,53476;0,03427;74,53476
0,4556;74,94972;0,03540;74,94972
0,4580;75,36281;0,03596;75,36281
0,4605;75,77404;0,03652;75,77404
0,4629;76,18340;0,03763;76,18340
0,4654;76,59137;0,03818;76,59137
0,4678;76,99794;0,03874;76,99794
0,4702;77,40347;0,03983;77,40347
0,4727;77,80806;0,04037;77,80806
0,4751;78,21149;0,04091;78,21149
0,4776;78,61399;0,04145;78,61399
0,4800;79,01521;0,04252;79,01521
0,4824;79,41538;0,04305;79,41538
0,4851;79,84500;0,04358;79,84500
0,4877;80,27345;0,04463;80,27345
0,4903;80,70051;0,04515;80,70051
0,4930;81,12606;0,04618;81,12606
0,4956;81,54986;0,04670;81,54986
0,4982;81,97191;0,04721;81,97191
0,5008;82,39245;0,04822;82,39245
0,5035;82,81182;0,04873;82,81182
0,5061;83,23050;0,04972;83,23050
0,5087;83,64883;0,05022;83,64883
0,5114;84,06658;0,05071;84,06658
0,5140;84,48386;0,05168;84,48386
0,5166;84,90091;0,05216;84,90091
0,5192;85,31760;0,05312;85,31760
0,5219;85,73407;0,05359;85,73407
0,5245;86,15030;0,05407;86,15030
0,5271;86,56642;0,05500;86,56642
0,5298;86,98219;0,05546;86,98219
0,5324;87,39749;0,05638;87,39749
0,5350;87,81244;0,05683;87,81244
0,5376;88,22670;0,05729;88,22670
0,5403;88,63979;0,05819;88,63979
0,5429;89,05171;0,05863;89,05171
0,5455;89,46236;0,05951;89,46236
0,5482;89,87173;0,05995;89,87173
0,5508;90,27993;0,06037;90,27993
0,5534;90,68708;0,06123;90,68708
0,5560;91,09319;0,06165;91,09319
0,5587;91,49860;0,06249;91,49860
0,5613;91,90319;0,06291;91,90319
0,5639;92,30709;0,06331;92,30709
0,5666;92,70994;0,06414;92,70994
0,5692;93,11162;0,06454;93,11162
0,5718;93,51191;0,06534;93,51191
0,5746;93,93920;0,06574;93,93920
0,5774;94,36497;0,06652;94,36497
0,5803;94,78912;0,06691;94,78912
0,5831;95,21176;0,06767;95,21176
0,5859;95,63253;0,06805;95,63253
0,5887;96,05167;0,06880;96,05167
0,5915;96,46942;0,06917;96,46942
0,5943;96,88600;0,06991;96,88600
0,5972;97,30142;0,07028;97,30142
0,6000;97,71591;0,07100;97,71591
0,6028;98,12958;0,07135;98,12958
0,6056;98,54279;0,07206;98,54279
0,6084;98,95518;0,07240;98,95518
0,6112;99,36641;0,07310;99,36641
0,6141;99,77659;0,07344;99,77659
0,6169;100,18572;0,07412;100,18572
0,6197;100,59416;0,07445;100,59416
0,6225;101,00224;0,07511;101,00224
0,6253;101,40986;0,07543;101,40986
0,6281;101,81702;0,07608;101,81702
0,6309;102,22336;0,07640;102,22336
0,6338;102,62865;0,07703;102,62865
0,6366;103,03336;0,07735;103,03336
0,6394;103,43772;0,07797;103,43772
0,6422;103,84208;0,07827;103,84208
0,6450;104,24691;0,07888;104,24691
0,6478;104,65243;0,07918;104,65243
0,6507;105,05854;0,07977;105,05854
0,6535;105,46523;0,08007;105,46523
0,6563;105,87203;0,08065;105,87203
0,6591;106,27849;0,08094;106,27849
0,6619;106,68378;0,08150;106,68378
0,6647;107,08500;0,08179;107,08500
0,6677;107,50472;0,08235;107,50472
0,6708;107,91211;0,08262;107,91211
0,6739;108,32788;0,08317;108,32788
0,6773;108,74306;0,08372;108,74306
0,6809;109,14463;0,08425;109,14463
0,6850;109,54934;0,08478;109,54934
0,6903;109,95079;0,08558;109,95079
0,7006;110,35422;0,08688;110,35422
0,7575;110,75497;0,09612;110,75497
0,7661;111,16399;0,09769;111,16399
0,7719;111,56719;0,09894;111,56719
0,7768;111,96945;0,10029;111,96945
0,7815;112,37533;0,10124;112,37533
0,7870;112,77655;0,10274;112,77655
0,9022;113,17660;0,16785;113,17660
1,2685;113,58352;0,66759;113,58352
1,2732;113,98881;0,67177;113,98881
1,2773;114,40155;0,67591;114,40155
1,2815;114,81756;0,68203;114,81756
1,2860;115,22552;0,68605;115,22552
1,2924;115,62709;0,69202;115,62709
1,4822;115,98850;1,30512;115,98850
1,5460;116,01201;1,91723;116,01201
1,5948;116,02621;2,52800;116,02621
1,6380;116,03704;3,14111;116,03704
1,6793;116,04682;3,76463;116,04682
1,7187;116,05601;4,37197;116,05601
1,7506;116,06253;4,86034;116,06253
1,7519;116,06288;4,86034;116,06288
