Part protocol
Network name;Part_OP10_MP-001_2020-08-26_16-20-51_0039_OK.csv
Protocol version;2.01.00

Index;Result information;Process values - curve related;Process values - EO related;Evaluation objects settings;Switch signal settings;Device information;Channel-X settings;Channel-Y settings;Cycle control settings;Evaluation settings;Trigger Y settings;Block settings;Measuring curve;Measuring points;Sequence;
Line;10;30;40;70;100;120;150;190;220;240;250;260;270;280;600;



Result information
Date;2020/08/26
Time;16:20:51
Cycle number;39
Total result;OK
Triggered switch signals
Part serial number;0039
Measuring program name;D57-Left
Measuring program number;1
Zero X offset;0,00;mm
Tara Y offset;0,0;kN









Process values - curve related
Block X;126,30;mm;XMIN-X;-0,21;mm
Block Y;7,5;kN;XMIN-Y;0,0;kN
Ref X;-;mm;XMAX-X;126,30;mm
Peak-peak X;126,51;mm;XMAX-Y;7,5;kN
Peak-peak Y;7,5;kN;YMIN-X;-0,21;mm
;;;YMIN-Y;0,0;kN
;;;YMAX-X;126,30;mm
;;;YMAX-Y;7,5;kN

Process values - EO related;Result;Entry;Exit;XMIN-X;XMIN-Y;XMAX-X;XMAX-Y;YMIN-Y;YMIN-X;YMAX-Y;YMAX-X
;;;;mm;kN;mm;kN;kN;mm;kN;mm
EO-01;OK;0,8;0,8;;;;;0,8;124,50;0,8;125,52;;;;;;
EO-02;OK;126,26;126,27;126,26;4,5;126,26;5,1;;;;;;;;;;
EO-03;None;
EO-04;None;
























Evaluation objects settings;Reaction;X reference;Y-Reference;XMin;XMax;YMin;YMax;Entry;Exit;Curve part;Catch zone X;Catch zone Y
EO-01;UNI-BOX;ABSOLUTE;-;124,50;125,70;0,5;3,0;LEFT;RIGHT;ANY;+50%;+50%
EO-02;UNI-BOX;ABSOLUTE;-;125,80;127,20;4,5;5,5;BELOW;ABOVE;ANY;+50%;+50%
EO-03;OFF
EO-04;OFF

























Switch signal settings;Channel;Threshold at;;Trigger from;Reference;Latch until
Type S1;OFF
Type S2;OFF

















Device information
Device type;maXYmos BL
Device type number;5867B1011
Device serial number;5182443
Firmware version;2.3.2 (r22473-BL_v2.3.x)
-
-
-
-
-
IP Address;10.0.0.18
Network name;OP10
Profibus address;10
-
-
-
Station name;OP10
Company name;
Comment;











Channel-X settings
Use the settings from global setup;True
Sensor-X type;Â±10V
Unit;mm
Used range from;0,00;mm
Used range to;200,00;mm
Decimal places;XXXX.XX
Scaling by;Teach-In
Point 1;0,00;mm;-0,350;%
Point 2;200,00;mm;10,000;%
Invert signal;FALSE
Filter;20 Hz
Test point;0,00;mm
Tolerance;2,00;mm
Enable sensor test by dig-input;FALSE
Zoom from;110,00;mm
Zoom to;133,11;mm























Channel-Y settings
Use the settings from global setup;True
Sensor-Y type;Strain Gage
Unit;kN
Used range from;0,0;kN
Used range to;20,0;kN
Decimal places;XXXXX.X
Scaling by;Teach-In
Point 1;0,0;kN;-0,01562;%
Point 2;20,0;kN;2,00000;%
Invert signal;FALSE
Filter;1 Hz
Piezo reset;-
Test point;0,0;kN
Tolerance;0,1;kN
Enable sensor test by dig-input;FALSE
Zoom from;0,0;kN
Zoom to;6,0;kN












Cycle control settings
Use the settings from global setup;True
Measuring function;Y (X)
Delta-X;Automatic
START condition;Dig-Input
STOP condition;Dig-Input
Cycle time out;20,00;s
Turning point RIGHT;YMAX
Turning point LEFT;NONE
Cut curve at;NONE










Evaluation settings
Capture only first NOK-EO for statistics;False
Hysteresis-X;0,0;%
Hysteresis-Y;100,0;%






Trigger Y settings
Threshold;1,9;kN
Value X at TRIGGER Y;0,00;mm
Approach from;BELOW






Block settings
Value X at block;XMAX
Block at;0,00;mm







Measuring curve
Number of measuring points;316
Ref. Graph on;ABSOLUTE
Curve segments;0;315;314;316;


Time;X(ABSOLUTE);Y;X (ABSOLUTE)


s;mm;kN;mm
0,0000;-0,21251;-0,03397;-0,21251
0,0991;0,19592;-0,03394;0,19592
0,1030;0,60540;-0,03394;0,60540
0,1058;1,01337;-0,03394;1,01337
0,1083;1,44800;-0,03394;1,44800
0,1103;1,87471;-0,03394;1,87471
0,1122;2,30980;-0,03393;2,30980
0,1139;2,73976;-0,03393;2,73976
0,1154;3,15216;-0,03393;3,15216
0,1169;3,59272;-0,03393;3,59272
0,1182;4,00115;-0,03392;4,00115
0,1195;4,43112;-0,03392;4,43112
0,1209;4,88227;-0,03392;4,88227
0,1220;5,28407;-0,03392;5,28407
0,1231;5,69704;-0,03392;5,69704
0,1242;6,11724;-0,03391;6,11724
0,1254;6,53999;-0,03391;6,53999
0,1265;6,96041;-0,03390;6,96041
0,1276;7,37408;-0,03390;7,37408
0,1287;7,77786;-0,03390;7,77786
0,1301;8,23344;-0,03389;8,23344
0,1314;8,67085;-0,03388;8,67085
0,1327;9,08953;-0,03388;9,08953
0,1342;9,54487;-0,03387;9,54487
0,1357;9,97554;-0,03386;9,97554
0,1372;10,38258;-0,03385;10,38258
0,1389;10,81616;-0,03384;10,81616
0,1406;11,23053;-0,03382;11,23053
0,1423;11,63314;-0,03382;11,63314
0,1441;12,07358;-0,03381;12,07358
0,1460;12,51077;-0,03379;12,51077
0,1479;12,94772;-0,03377;12,94772
0,1498;13,38793;-0,03374;13,38793
0,1515;13,78985;-0,03373;13,78985
0,1531;14,19852;-0,03370;14,19852
0,1548;14,61335;-0,03367;14,61335
0,1565;15,03319;-0,03364;15,03319
0,1582;15,45734;-0,03361;15,45734
0,1599;15,88580;-0,03358;15,88580
0,1616;16,31902;-0,03355;16,31902
0,1633;16,75633;-0,03351;16,75633
0,1650;17,19665;-0,03348;17,19665
0,1667;17,63908;-0,03348;17,63908
0,1684;18,08324;-0,03343;18,08324
0,1700;18,52939;-0,03338;18,52939
0,1717;18,97798;-0,03334;18,97798
0,1732;19,37804;-0,03329;19,37804
0,1747;19,77891;-0,03324;19,77891
0,1762;20,18036;-0,03319;20,18036
0,1777;20,58239;-0,03319;20,58239
0,1792;20,98559;-0,03313;20,98559
0,1807;21,39041;-0,03308;21,39041
0,1822;21,79652;-0,03301;21,79652
0,1838;22,20344;-0,03296;22,20344
0,1853;22,61060;-0,03296;22,61060
0,1868;23,01763;-0,03289;23,01763
0,1883;23,42479;-0,03282;23,42479
0,1898;23,83217;-0,03275;23,83217
0,1913;24,24014;-0,03268;24,24014
0,1928;24,64835;-0,03268;24,64835
0,1943;25,05632;-0,03261;25,05632
0,1958;25,46359;-0,03253;25,46359
0,1973;25,87016;-0,03245;25,87016
0,1988;26,27638;-0,03236;26,27638
0,2003;26,68249;-0,03236;26,68249
0,2018;27,08859;-0,03228;27,08859
0,2033;27,49435;-0,03220;27,49435
0,2048;27,89918;-0,03211;27,89918
0,2063;28,30261;-0,03201;28,30261
0,2078;28,70453;-0,03201;28,70453
0,2093;29,10504;-0,03192;29,10504
0,2110;29,55399;-0,03183;29,55399
0,2127;30,00130;-0,03173;30,00130
0,2144;30,44616;-0,03162;30,44616
0,2160;30,88824;-0,03152;30,88824
0,2177;31,32740;-0,03142;31,32740
0,2194;31,76354;-0,03131;31,76354
0,2211;32,19700;-0,03131;32,19700
0,2228;32,62778;-0,03120;32,62778
0,2245;33,05577;-0,03109;33,05577
0,2262;33,48120;-0,03098;33,48120
0,2279;33,90395;-0,03086;33,90395
0,2296;34,32449;-0,03074;34,32449
0,2312;34,74270;-0,03062;34,74270
0,2329;35,15859;-0,03050;35,15859
0,2346;35,57191;-0,03037;35,57191
0,2363;35,98279;-0,03025;35,98279
0,2380;36,39111;-0,03025;36,39111
0,2397;36,79721;-0,03012;36,79721
0,2414;37,20099;-0,02999;37,20099
0,2431;37,60244;-0,02987;37,60244
0,2450;38,04591;-0,02974;38,04591
0,2468;38,48671;-0,02960;38,48671
0,2487;38,92529;-0,02947;38,92529
0,2506;39,36166;-0,02933;39,36166
0,2525;39,79616;-0,02919;39,79616
0,2543;40,22904;-0,02905;40,22904
0,2562;40,66029;-0,02891;40,66029
0,2581;41,09003;-0,02876;41,09003
0,2600;41,51801;-0,02862;41,51801
0,2619;41,94403;-0,02848;41,94403
0,2637;42,36794;-0,02833;42,36794
0,2656;42,79011;-0,02818;42,79011
0,2675;43,21030;-0,02803;43,21030
0,2694;43,62851;-0,02788;43,62851
0,2712;44,04498;-0,02774;44,04498
0,2731;44,45970;-0,02759;44,45970
0,2750;44,87302;-0,02743;44,87302
0,2769;45,28518;-0,02728;45,28518
0,2787;45,69641;-0,02713;45,69641
0,2806;46,10682;-0,02697;46,10682
0,2825;46,51642;-0,02681;46,51642
0,2844;46,92509;-0,02665;46,92509
0,2863;47,33259;-0,02650;47,33259
0,2881;47,73858;-0,02634;47,73858
0,2900;48,14306;-0,02618;48,14306
0,2919;48,54603;-0,02602;48,54603
0,2938;48,94771;-0,02586;48,94771
0,2956;49,34811;-0,02570;49,34811
0,2977;49,78728;-0,02553;49,78728
0,2998;50,22516;-0,02538;50,22516
0,3018;50,66188;-0,02521;50,66188
0,3039;51,09720;-0,02488;51,09720
0,3060;51,53101;-0,02472;51,53101
0,3080;51,96354;-0,02455;51,96354
0,3101;52,39467;-0,02439;52,39467
0,3122;52,82475;-0,02423;52,82475
0,3142;53,25367;-0,02406;53,25367
0,3163;53,68131;-0,02389;53,68131
0,3184;54,10791;-0,02373;54,10791
0,3204;54,53345;-0,02356;54,53345
0,3225;54,95783;-0,02339;54,95783
0,3246;55,38117;-0,02305;55,38117
0,3266;55,80334;-0,02289;55,80334
0,3287;56,22434;-0,02272;56,22434
0,3308;56,64418;-0,02255;56,64418
0,3328;57,06286;-0,02239;57,06286
0,3349;57,48037;-0,02221;57,48037
0,3369;57,89696;-0,02204;57,89696
0,3390;58,31249;-0,02188;58,31249
0,3411;58,72710;-0,02171;58,72710
0,3431;59,14054;-0,02153;59,14054
0,3452;59,55258;-0,02120;59,55258
0,3473;59,96334;-0,02103;59,96334
0,3493;60,37282;-0,02086;60,37282
0,3514;60,78126;-0,02069;60,78126
0,3535;61,18899;-0,02052;61,18899
0,3555;61,59592;-0,02036;61,59592
0,3576;62,00202;-0,02018;62,00202
0,3597;62,40720;-0,02002;62,40720
0,3617;62,81109;-0,01985;62,81109
0,3638;63,21394;-0,01968;63,21394
0,3659;63,61574;-0,01934;63,61574
0,3679;64,01649;-0,01917;64,01649
0,3700;64,41655;-0,01901;64,41655
0,3722;64,85175;-0,01883;64,85175
0,3745;65,28591;-0,01866;65,28591
0,3767;65,71856;-0,01850;65,71856
0,3790;66,14969;-0,01816;66,14969
0,3813;66,57919;-0,01800;66,57919
0,3835;67,00730;-0,01783;67,00730
0,3858;67,43436;-0,01766;67,43436
0,3880;67,86072;-0,01749;67,86072
0,3903;68,28661;-0,01716;68,28661
0,3925;68,71181;-0,01699;68,71181
0,3948;69,13642;-0,01682;69,13642
0,3970;69,56022;-0,01666;69,56022
0,3993;69,98309;-0,01649;69,98309
0,4015;70,40479;-0,01617;70,40479
0,4038;70,82510;-0,01600;70,82510
0,4060;71,24412;-0,01583;71,24412
0,4083;71,66164;-0,01567;71,66164
0,4105;72,07787;-0,01550;72,07787
0,4128;72,49282;-0,01517;72,49282
0,4150;72,90661;-0,01501;72,90661
0,4173;73,31970;-0,01484;73,31970
0,4196;73,73221;-0,01468;73,73221
0,4218;74,14437;-0,01452;74,14437
0,4241;74,55583;-0,01419;74,55583
0,4263;74,96683;-0,01403;74,96683
0,4286;75,37689;-0,01387;75,37689
0,4308;75,78603;-0,01370;75,78603
0,4331;76,19411;-0,01355;76,19411
0,4353;76,60080;-0,01322;76,60080
0,4376;77,00598;-0,01305;77,00598
0,4398;77,40975;-0,01290;77,40975
0,4421;77,81225;-0,01274;77,81225
0,4443;78,21347;-0,01257;78,21347
0,4466;78,61364;-0,01226;78,61364
0,4490;79,04605;-0,01210;79,04605
0,4515;79,47719;-0,01193;79,47719
0,4539;79,90704;-0,01178;79,90704
0,4564;80,33549;-0,01146;80,33549
0,4588;80,76243;-0,01131;80,76243
0,4612;81,18775;-0,01115;81,18775
0,4637;81,61155;-0,01083;81,61155
0,4661;82,03371;-0,01068;82,03371
0,4686;82,45449;-0,01052;82,45449
0,4710;82,87351;-0,01020;82,87351
0,4734;83,29056;-0,01005;83,29056
0,4759;83,70552;-0,00989;83,70552
0,4783;84,11814;-0,00973;84,11814
0,4808;84,52867;-0,00943;84,52867
0,4832;84,93745;-0,00927;84,93745
0,4856;85,34472;-0,00912;85,34472
0,4881;85,75071;-0,00881;85,75071
0,4905;86,15554;-0,00866;86,15554
0,4930;86,55920;-0,00850;86,55920
0,4954;86,96170;-0,00819;86,96170
0,4978;87,36292;-0,00805;87,36292
0,5005;87,79324;-0,00789;87,79324
0,5031;88,22169;-0,00758;88,22169
0,5057;88,64805;-0,00744;88,64805
0,5084;89,07255;-0,00729;89,07255
0,5110;89,49553;-0,00698;89,49553
0,5136;89,91701;-0,00683;89,91701
0,5162;90,33720;-0,00653;90,33720
0,5189;90,75634;-0,00638;90,75634
0,5215;91,17478;-0,00623;91,17478
0,5241;91,59253;-0,00593;91,59253
0,5268;92,00969;-0,00578;92,00969
0,5294;92,42651;-0,00548;92,42651
0,5320;92,84286;-0,00533;92,84286
0,5346;93,25851;-0,00519;93,25851
0,5373;93,67346;-0,00489;93,67346
0,5399;94,08737;-0,00474;94,08737
0,5425;94,50034;-0,00445;94,50034
0,5452;94,91239;-0,00430;94,91239
0,5478;95,32338;-0,00415;95,32338
0,5504;95,73345;-0,00386;95,73345
0,5530;96,14246;-0,00371;96,14246
0,5557;96,55055;-0,00342;96,55055
0,5583;96,95770;-0,00327;96,95770
0,5609;97,36439;-0,00313;97,36439
0,5636;97,77050;-0,00284;97,77050
0,5662;98,17637;-0,00269;98,17637
0,5688;98,58190;-0,00240;98,58190
0,5714;98,98696;-0,00225;98,98696
0,5741;99,39143;-0,00210;99,39143
0,5767;99,79475;-0,00182;99,79475
0,5793;100,19678;-0,00167;100,19678
0,5819;100,59718;-0,00138;100,59718
0,5848;101,02471;-0,00123;101,02471
0,5876;101,45072;-0,00095;101,45072
0,5904;101,87545;-0,00080;101,87545
0,5932;102,29901;-0,00051;102,29901
0,5960;102,72200;-0,00036;102,72200
0,5988;103,14417;-0,00008;103,14417
0,6017;103,56343;0,00006;103,56343
0,6045;103,97733;0,00036;103,97733
0,6073;104,38356;0,00050;104,38356
0,6103;104,80782;0,00079;104,80782
0,6133;105,22266;0,00093;105,22266
0,6163;105,62772;0,00122;105,62772
0,6195;106,04674;0,00152;106,04674
0,6227;106,45483;0,00165;106,45483
0,6261;106,87700;0,00195;106,87700
0,6294;107,29160;0,00224;107,29160
0,6328;107,70108;0,00253;107,70108
0,6362;108,10847;0,00283;108,10847
0,6396;108,51574;0,00298;108,51574
0,6430;108,92476;0,00327;108,92476
0,6463;109,33715;0,00358;109,33715
0,6497;109,75455;0,00389;109,75455
0,6531;110,17811;0,00419;110,17811
0,6563;110,58445;0,00435;110,58445
0,6595;110,99661;0,00465;110,99661
0,6627;111,41238;0,00498;111,41238
0,6659;111,82733;0,00514;111,82733
0,6691;112,23740;0,00546;112,23740
0,6723;112,63873;0,00578;112,63873
0,6756;113,05217;0,00613;113,05217
0,6790;113,45351;0,00629;113,45351
0,6826;113,86508;0,00663;113,86508
0,6861;114,26619;0,00699;114,26619
0,6899;114,67881;0,00735;114,67881
0,6937;115,08236;0,00771;115,08236
0,6976;115,49487;0,00808;115,49487
0,7015;115,89539;0,00847;115,89539
0,7057;116,30557;0,00905;116,30557
0,7098;116,71784;0,00946;116,71784
0,7137;117,12732;0,00987;117,12732
0,7175;117,54460;0,01030;117,54460
0,7211;117,95118;0,01074;117,95118
0,7252;118,35554;0,01120;118,35554
0,7320;118,76002;0,01215;118,76002
1,2520;119,02493;0,61251;119,02493
1,2888;119,42941;0,65754;119,42941
1,2935;119,83703;0,66430;119,83703
1,2976;120,24523;0,66877;120,24523
1,3017;120,66251;0,67321;120,66251
1,3063;121,07642;0,67764;121,07642
1,3124;121,47985;0,68646;121,47985
1,3269;121,88095;0,70198;121,88095
1,3365;122,28613;0,71565;122,28613
1,3423;122,69479;0,72270;122,69479
1,3476;123,10125;0,72751;123,10125
1,3526;123,50177;0,73489;123,50177
1,3581;123,90636;0,74251;123,90636
1,3643;124,31235;0,75040;124,31235
1,3706;124,71299;0,76135;124,71299
1,3770;125,12084;0,76991;125,12084
1,3830;125,52322;0,77878;125,52322
1,3909;125,92700;0,79428;125,92700
1,5749;126,16527;1,40282;126,16527
1,6650;126,19937;2,00809;126,19937
1,7345;126,21869;2,62140;126,21869
1,7946;126,23382;3,23760;126,23382
1,8490;126,24523;3,84208;126,24523
1,9016;126,25606;4,44571;126,25606
1,9541;126,26467;5,05022;126,26467
2,0086;126,27468;5,66105;126,27468
2,0649;126,28259;6,26399;126,28259
2,1250;126,29062;6,86621;126,29062
2,1907;126,29866;7,47264;126,29866
2,1920;126,29889;7,47264;126,29889
